['COUNTER', 'AF3', 'F7', 'F3', 'FC5', 'T7', 'P7', 'O1', 'O2', 'P8', 'T8', 'FC6', 'F4', 'F8', 'AF4', 'GYROX', 'GYROY', 'TIMESTAMP', 'FUNC_ID', 'FUNC_VALUE', 'MARKER', 'SYNC_SIGNAL']
3.0 , 4191.79487179 , 4227.17948718 , 4258.46153846 , 4236.92307692 , 4229.23076923 , 4271.79487179 , 4221.02564103 , 4211.28205128 , 4084.61538462 , 4193.33333333 , 4108.71794872 , 4159.48717949 , 4098.46153846 , 4212.30769231 , 1680.0 , 1744.0 , 21.605 , 0.0 , 0.0 , 0.0 , 0.0 , 

4.0 , 4333.33333333 , 4114.35897436 , 3999.48717949 , 4058.46153846 , 4029.23076923 , 3931.79487179 , 4002.05128205 , 4273.33333333 , 4432.30769231 , 4221.02564103 , 4467.17948718 , 4478.97435897 , 4481.02564103 , 4411.79487179 , 1680.0 , 1744.0 , 21.613 , 0.0 , 0.0 , 0.0 , 0.0 , 

5.0 , 4035.38461538 , 4227.17948718 , 4410.25641026 , 4316.41025641 , 4393.33333333 , 4454.87179487 , 4406.15384615 , 4082.56410256 , 4147.69230769 , 4183.07692308 , 4016.92307692 , 3860.0 , 4045.12820513 , 3834.35897436 , 1680.0 , 1744.0 , 21.621 , 0.0 , 0.0 , 0.0 , 0.0 , 

6.0 , 4184.61538462 , 4353.33333333 , 4367.17948718 , 4349.23076923 , 4281.02564103 , 4436.92307692 , 4290.25641026 , 4264.1025641 , 3697.43589744 , 4168.20512821 , 3843.07692308 , 4128.20512821 , 3789.74358974 , 4352.82051282 , 1680.0 , 1745.0 , 21.628 , 0.0 , 0.0 , 0.0 , 0.0 , 

7.0 , 5043.07692308 , 3692.30769231 , 2784.1025641 , 3278.46153846 , 3076.41025641 , 2364.61538462 , 2994.87179487 , 4649.74358974 , 5807.69230769 , 4303.58974359 , 6035.8974359 , 5982.05128205 , 6090.76923077 , 5530.76923077 , 1680.0 , 1744.0 , 21.636 , 0.0 , 0.0 , 0.0 , 0.0 , 

8.0 , 4268.71794872 , 3873.84615385 , 3392.82051282 , 3741.53846154 , 3854.87179487 , 3194.87179487 , 4037.43589744 , 4063.58974359 , 5986.15384615 , 4195.38461538 , 5591.28205128 , 4665.12820513 , 5763.58974359 , 3840.51282051 , 1679.0 , 1745.0 , 21.644 , 0.0 , 0.0 , 0.0 , 0.0 , 

9.0 , 3631.28205128 , 4709.74358974 , 4515.8974359 , 4724.1025641 , 4762.56410256 , 4892.30769231 , 5203.07692308 , 3802.05128205 , 3686.66666667 , 4145.12820513 , 3539.48717949 , 3401.02564103 , 3438.97435897 , 3429.74358974 , 1681.0 , 1744.0 , 21.652 , 0.0 , 0.0 , 0.0 , 0.0 , 

10.0 , 4336.92307692 , 4347.69230769 , 3592.30769231 , 4065.12820513 , 3933.33333333 , 3715.8974359 , 4210.76923077 , 4172.30769231 , 4297.43589744 , 4305.12820513 , 4536.92307692 , 4618.46153846 , 4301.53846154 , 4662.56410256 , 1679.0 , 1744.0 , 21.66 , 0.0 , 0.0 , 0.0 , 0.0 , 

11.0 , 4129.23076923 , 4221.02564103 , 3708.20512821 , 4072.30769231 , 4103.07692308 , 3647.69230769 , 4376.41025641 , 4024.1025641 , 4933.84615385 , 4224.1025641 , 4891.79487179 , 4410.25641026 , 4713.84615385 , 4025.64102564 , 1681.0 , 1745.0 , 21.668 , 0.0 , 0.0 , 0.0 , 0.0 , 

12.0 , 3945.12820513 , 4477.94871795 , 4026.66666667 , 4365.64102564 , 4351.79487179 , 4318.46153846 , 4702.56410256 , 3975.38461538 , 4188.71794872 , 4203.58974359 , 4140.0 , 4004.61538462 , 3992.82051282 , 3888.20512821 , 1681.0 , 1743.0 , 21.675 , 0.0 , 0.0 , 0.0 , 0.0 , 

13.0 , 4174.87179487 , 4342.56410256 , 3776.41025641 , 4155.8974359 , 4118.97435897 , 4178.97435897 , 4414.35897436 , 4059.48717949 , 4157.43589744 , 4259.48717949 , 4153.33333333 , 4115.38461538 , 4141.02564103 , 4258.46153846 , 1680.0 , 1744.0 , 21.683 , 0.0 , 0.0 , 0.0 , 0.0 , 

14.0 , 4116.41025641 , 4360.51282051 , 3884.1025641 , 4213.33333333 , 4205.12820513 , 4054.87179487 , 4508.20512821 , 4015.8974359 , 4279.48717949 , 4224.1025641 , 4284.1025641 , 4101.53846154 , 4247.69230769 , 4274.35897436 , 1680.0 , 1744.0 , 21.691 , 0.0 , 0.0 , 0.0 , 0.0 , 

15.0 , 4103.07692308 , 4358.97435897 , 3837.43589744 , 4202.05128205 , 4175.38461538 , 3993.33333333 , 4475.8974359 , 4031.79487179 , 4427.17948718 , 4230.76923077 , 4434.87179487 , 4244.61538462 , 4270.25641026 , 4238.46153846 , 1681.0 , 1745.0 , 21.699 , 0.0 , 0.0 , 0.0 , 0.0 , 

16.0 , 4089.74358974 , 4351.28205128 , 3845.12820513 , 4202.56410256 , 4187.69230769 , 4093.33333333 , 4483.58974359 , 4031.28205128 , 4432.30769231 , 4228.20512821 , 4397.94871795 , 4222.56410256 , 4223.07692308 , 4077.43589744 , 1681.0 , 1744.0 , 21.707 , 0.0 , 0.0 , 0.0 , 0.0 , 

17.0 , 4113.84615385 , 4365.64102564 , 3857.43589744 , 4207.69230769 , 4185.12820513 , 4051.79487179 , 4485.12820513 , 4031.79487179 , 4376.92307692 , 4229.23076923 , 4358.46153846 , 4147.69230769 , 4245.64102564 , 4131.28205128 , 1680.0 , 1745.0 , 21.714 , 0.0 , 0.0 , 0.0 , 0.0 , 

18.0 , 4096.41025641 , 4355.38461538 , 3841.53846154 , 4202.05128205 , 4181.02564103 , 4036.92307692 , 4482.05128205 , 4027.69230769 , 4300.51282051 , 4228.20512821 , 4300.0 , 4085.12820513 , 4263.07692308 , 4166.66666667 , 1681.0 , 1744.0 , 21.723 , 0.0 , 0.0 , 0.0 , 0.0 , 

19.0 , 4086.15384615 , 4360.51282051 , 3844.1025641 , 4211.28205128 , 4186.15384615 , 4049.74358974 , 4488.71794872 , 4028.20512821 , 4294.35897436 , 4225.12820513 , 4323.07692308 , 4141.02564103 , 4248.20512821 , 4186.15384615 , 1680.0 , 1745.0 , 21.73 , 0.0 , 0.0 , 0.0 , 0.0 , 

20.0 , 4109.74358974 , 4353.33333333 , 3848.20512821 , 4201.53846154 , 4178.97435897 , 4048.71794872 , 4478.46153846 , 4030.25641026 , 4374.87179487 , 4230.76923077 , 4376.92307692 , 4204.61538462 , 4244.1025641 , 4174.35897436 , 1681.0 , 1744.0 , 21.738 , 0.0 , 0.0 , 0.0 , 0.0 , 

21.0 , 4091.28205128 , 4365.64102564 , 3851.28205128 , 4208.20512821 , 4188.71794872 , 4053.84615385 , 4490.76923077 , 4031.28205128 , 4428.20512821 , 4230.76923077 , 4386.66666667 , 4213.84615385 , 4247.69230769 , 4150.76923077 , 1680.0 , 1744.0 , 21.746 , 0.0 , 0.0 , 0.0 , 0.0 , 

22.0 , 4094.35897436 , 4358.97435897 , 3835.8974359 , 4202.56410256 , 4178.97435897 , 4051.79487179 , 4478.97435897 , 4031.28205128 , 4386.15384615 , 4227.17948718 , 4365.12820513 , 4163.07692308 , 4247.17948718 , 4132.30769231 , 1681.0 , 1745.0 , 21.754 , 0.0 , 0.0 , 0.0 , 0.0 , 

23.0 , 4111.79487179 , 4354.35897436 , 3851.28205128 , 4206.15384615 , 4183.58974359 , 4043.58974359 , 4485.12820513 , 4028.20512821 , 4304.1025641 , 4229.23076923 , 4318.97435897 , 4092.30769231 , 4247.17948718 , 4139.48717949 , 1681.0 , 1744.0 , 21.761 , 0.0 , 0.0 , 0.0 , 0.0 , 

24.0 , 4090.76923077 , 4360.51282051 , 3849.74358974 , 4207.69230769 , 4187.69230769 , 4050.25641026 , 4489.23076923 , 4031.79487179 , 4294.35897436 , 4231.79487179 , 4329.23076923 , 4131.28205128 , 4251.79487179 , 4176.41025641 , 1680.0 , 1745.0 , 21.769 , 0.0 , 0.0 , 0.0 , 0.0 , 

25.0 , 4083.07692308 , 4354.87179487 , 3839.48717949 , 4201.53846154 , 4186.15384615 , 4069.74358974 , 4483.07692308 , 4033.33333333 , 4351.28205128 , 4229.23076923 , 4354.87179487 , 4185.64102564 , 4228.20512821 , 4174.35897436 , 1681.0 , 1744.0 , 21.777 , 0.0 , 0.0 , 0.0 , 0.0 , 

26.0 , 4116.92307692 , 4361.02564103 , 3854.35897436 , 4204.1025641 , 4185.12820513 , 4055.38461538 , 4488.20512821 , 4034.87179487 , 4393.84615385 , 4229.74358974 , 4340.51282051 , 4180.51282051 , 4224.61538462 , 4160.0 , 1680.0 , 1744.0 , 21.785 , 0.0 , 0.0 , 0.0 , 0.0 , 

27.0 , 4123.58974359 , 4361.53846154 , 3851.79487179 , 4204.61538462 , 4177.43589744 , 4033.33333333 , 4481.02564103 , 4032.30769231 , 4383.07692308 , 4230.25641026 , 4348.71794872 , 4153.84615385 , 4265.64102564 , 4161.02564103 , 1681.0 , 1744.0 , 21.793 , 0.0 , 0.0 , 0.0 , 0.0 , 

28.0 , 4093.84615385 , 4356.41025641 , 3846.66666667 , 4208.20512821 , 4186.15384615 , 4071.28205128 , 4484.61538462 , 4030.25641026 , 4330.76923077 , 4228.71794872 , 4353.84615385 , 4122.05128205 , 4235.8974359 , 4152.82051282 , 1680.0 , 1745.0 , 21.8 , 0.0 , 0.0 , 0.0 , 0.0 , 

29.0 , 4083.07692308 , 4359.48717949 , 3846.15384615 , 4208.20512821 , 4189.23076923 , 4078.97435897 , 4489.74358974 , 4033.84615385 , 4313.84615385 , 4229.74358974 , 4344.61538462 , 4147.69230769 , 4226.15384615 , 4175.38461538 , 1680.0 , 1744.0 , 21.808 , 0.0 , 0.0 , 0.0 , 0.0 , 

30.0 , 4104.61538462 , 4362.56410256 , 3840.51282051 , 4203.58974359 , 4177.43589744 , 4062.05128205 , 4480.51282051 , 4029.74358974 , 4346.15384615 , 4228.71794872 , 4350.76923077 , 4164.1025641 , 4242.05128205 , 4167.17948718 , 1680.0 , 1745.0 , 21.816 , 0.0 , 0.0 , 0.0 , 0.0 , 

31.0 , 4100.0 , 4357.43589744 , 3853.33333333 , 4207.17948718 , 4185.64102564 , 4056.41025641 , 4487.17948718 , 4030.25641026 , 4362.56410256 , 4230.25641026 , 4347.17948718 , 4138.97435897 , 4220.0 , 4157.94871795 , 1681.0 , 1744.0 , 21.824 , 0.0 , 0.0 , 0.0 , 0.0 , 

32.0 , 4118.97435897 , 4356.41025641 , 3846.66666667 , 4202.05128205 , 4180.0 , 4033.84615385 , 4477.43589744 , 4035.8974359 , 4364.61538462 , 4232.30769231 , 4353.33333333 , 4144.61538462 , 4260.0 , 4176.41025641 , 1680.0 , 1744.0 , 21.832 , 0.0 , 0.0 , 0.0 , 0.0 , 

33.0 , 4120.51282051 , 4360.0 , 3843.07692308 , 4202.56410256 , 4176.41025641 , 4074.35897436 , 4472.30769231 , 4031.28205128 , 4351.28205128 , 4228.71794872 , 4362.05128205 , 4157.43589744 , 4232.82051282 , 4152.30769231 , 1680.0 , 1746.0 , 21.84 , 0.0 , 0.0 , 0.0 , 0.0 , 

34.0 , 4076.92307692 , 4354.87179487 , 3855.8974359 , 4207.69230769 , 4188.20512821 , 4093.33333333 , 4486.15384615 , 4035.38461538 , 4338.46153846 , 4229.74358974 , 4348.71794872 , 4154.87179487 , 4198.97435897 , 4175.38461538 , 1680.0 , 1744.0 , 21.847 , 0.0 , 0.0 , 0.0 , 0.0 , 

35.0 , 4102.56410256 , 4364.1025641 , 3833.84615385 , 4200.51282051 , 4180.0 , 4062.05128205 , 4478.46153846 , 4038.46153846 , 4353.33333333 , 4233.84615385 , 4352.30769231 , 4154.35897436 , 4245.12820513 , 4185.12820513 , 1680.0 , 1745.0 , 21.855 , 0.0 , 0.0 , 0.0 , 0.0 , 

36.0 , 4102.56410256 , 4356.41025641 , 3842.56410256 , 4201.53846154 , 4184.61538462 , 4056.41025641 , 4481.02564103 , 4034.35897436 , 4356.41025641 , 4230.76923077 , 4355.38461538 , 4146.66666667 , 4232.30769231 , 4151.28205128 , 1680.0 , 1744.0 , 21.863 , 0.0 , 0.0 , 0.0 , 0.0 , 

37.0 , 4100.0 , 4348.71794872 , 3854.35897436 , 4198.97435897 , 4183.07692308 , 4042.56410256 , 4474.35897436 , 4035.38461538 , 4353.84615385 , 4232.82051282 , 4353.84615385 , 4149.23076923 , 4238.97435897 , 4175.38461538 , 1680.0 , 1745.0 , 21.871 , 0.0 , 0.0 , 0.0 , 0.0 , 

38.0 , 4123.58974359 , 4365.64102564 , 3840.0 , 4198.46153846 , 4178.46153846 , 4078.46153846 , 4468.20512821 , 4032.82051282 , 4362.05128205 , 4235.8974359 , 4359.48717949 , 4155.8974359 , 4246.66666667 , 4168.71794872 , 1681.0 , 1744.0 , 21.879 , 0.0 , 0.0 , 0.0 , 0.0 , 

39.0 , 4073.33333333 , 4350.76923077 , 3845.12820513 , 4203.07692308 , 4188.20512821 , 4120.0 , 4481.53846154 , 4037.94871795 , 4356.92307692 , 4231.79487179 , 4354.87179487 , 4151.28205128 , 4216.92307692 , 4154.35897436 , 1680.0 , 1744.0 , 21.885 , 0.0 , 0.0 , 0.0 , 0.0 , 

40.0 , 4075.8974359 , 4354.87179487 , 3831.28205128 , 4197.94871795 , 4181.02564103 , 4077.43589744 , 4473.33333333 , 4042.05128205 , 4354.35897436 , 4230.25641026 , 4354.35897436 , 4156.41025641 , 4232.30769231 , 4171.28205128 , 1681.0 , 1744.0 , 21.894 , 0.0 , 0.0 , 0.0 , 0.0 , 

41.0 , 4103.58974359 , 4364.1025641 , 3842.05128205 , 4201.02564103 , 4181.53846154 , 4040.0 , 4475.8974359 , 4035.38461538 , 4354.35897436 , 4231.28205128 , 4354.35897436 , 4150.25641026 , 4232.30769231 , 4160.51282051 , 1680.0 , 1744.0 , 21.902 , 0.0 , 0.0 , 0.0 , 0.0 , 

42.0 , 4111.28205128 , 4350.76923077 , 3853.33333333 , 4197.94871795 , 4179.48717949 , 4038.97435897 , 4476.41025641 , 4038.46153846 , 4353.84615385 , 4234.87179487 , 4362.56410256 , 4148.71794872 , 4225.64102564 , 4156.41025641 , 1680.0 , 1744.0 , 21.91 , 0.0 , 0.0 , 0.0 , 0.0 , 

43.0 , 4114.87179487 , 4362.05128205 , 3836.41025641 , 4196.41025641 , 4177.43589744 , 4082.56410256 , 4473.84615385 , 4037.43589744 , 4362.05128205 , 4235.38461538 , 4348.20512821 , 4161.02564103 , 4244.1025641 , 4157.43589744 , 1680.0 , 1744.0 , 21.918 , 0.0 , 0.0 , 0.0 , 0.0 , 

44.0 , 4070.76923077 , 4356.92307692 , 3842.56410256 , 4204.61538462 , 4187.69230769 , 4106.15384615 , 4482.56410256 , 4037.43589744 , 4363.07692308 , 4231.79487179 , 4323.58974359 , 4158.97435897 , 4233.33333333 , 4152.30769231 , 1680.0 , 1745.0 , 21.926 , 0.0 , 0.0 , 0.0 , 0.0 , 

45.0 , 4080.0 , 4355.8974359 , 3840.51282051 , 4198.97435897 , 4181.53846154 , 4073.33333333 , 4472.82051282 , 4047.69230769 , 4365.64102564 , 4234.87179487 , 4344.61538462 , 4161.02564103 , 4228.20512821 , 4154.35897436 , 1681.0 , 1744.0 , 21.933 , 0.0 , 0.0 , 0.0 , 0.0 , 

46.0 , 4107.17948718 , 4364.1025641 , 3843.07692308 , 4201.02564103 , 4183.07692308 , 4071.28205128 , 4475.8974359 , 4037.43589744 , 4365.12820513 , 4233.84615385 , 4358.97435897 , 4160.51282051 , 4231.79487179 , 4150.25641026 , 1679.0 , 1745.0 , 21.942 , 0.0 , 0.0 , 0.0 , 0.0 , 

47.0 , 4107.17948718 , 4351.28205128 , 3846.15384615 , 4197.94871795 , 4181.02564103 , 4074.35897436 , 4475.38461538 , 4035.38461538 , 4358.46153846 , 4232.82051282 , 4374.87179487 , 4157.43589744 , 4230.25641026 , 4155.38461538 , 1680.0 , 1744.0 , 21.949 , 0.0 , 0.0 , 0.0 , 0.0 , 

48.0 , 4109.74358974 , 4356.41025641 , 3839.48717949 , 4191.28205128 , 4175.8974359 , 4055.38461538 , 4468.20512821 , 4045.64102564 , 4370.25641026 , 4235.38461538 , 4346.66666667 , 4167.17948718 , 4242.56410256 , 4150.76923077 , 1680.0 , 1745.0 , 21.957 , 0.0 , 0.0 , 0.0 , 0.0 , 

49.0 , 4078.97435897 , 4358.46153846 , 3846.15384615 , 4202.56410256 , 4186.15384615 , 4067.69230769 , 4475.8974359 , 4041.53846154 , 4374.35897436 , 4235.38461538 , 4285.12820513 , 4165.64102564 , 4242.05128205 , 4149.74358974 , 1681.0 , 1744.0 , 21.965 , 0.0 , 0.0 , 0.0 , 0.0 , 

50.0 , 4078.46153846 , 4354.35897436 , 3836.92307692 , 4201.02564103 , 4183.07692308 , 4073.33333333 , 4470.25641026 , 4040.51282051 , 4373.84615385 , 4241.02564103 , 4320.51282051 , 4161.53846154 , 4237.43589744 , 4153.33333333 , 1680.0 , 1744.0 , 21.973 , 0.0 , 0.0 , 0.0 , 0.0 , 

51.0 , 4097.43589744 , 4356.41025641 , 3840.0 , 4196.41025641 , 4183.07692308 , 4066.66666667 , 4472.30769231 , 4034.35897436 , 4378.46153846 , 4237.43589744 , 4377.94871795 , 4166.66666667 , 4242.56410256 , 4141.53846154 , 1680.0 , 1744.0 , 21.98 , 0.0 , 0.0 , 0.0 , 0.0 , 

52.0 , 4098.97435897 , 4349.74358974 , 3849.23076923 , 4199.48717949 , 4185.12820513 , 4069.23076923 , 4473.84615385 , 4029.23076923 , 4365.64102564 , 4231.79487179 , 4391.79487179 , 4167.69230769 , 4240.0 , 4164.61538462 , 1680.0 , 1744.0 , 21.988 , 0.0 , 0.0 , 0.0 , 0.0 , 

53.0 , 4110.76923077 , 4356.41025641 , 3843.07692308 , 4197.43589744 , 4183.58974359 , 4067.17948718 , 4470.76923077 , 4034.87179487 , 4366.66666667 , 4236.41025641 , 4344.1025641 , 4166.15384615 , 4244.1025641 , 4159.48717949 , 1681.0 , 1745.0 , 21.996 , 0.0 , 0.0 , 0.0 , 0.0 , 

54.0 , 4095.38461538 , 4357.94871795 , 3849.23076923 , 4200.51282051 , 4190.76923077 , 4064.61538462 , 4480.0 , 4034.87179487 , 4373.33333333 , 4234.35897436 , 4264.61538462 , 4170.76923077 , 4243.07692308 , 4143.58974359 , 1680.0 , 1745.0 , 22.004 , 0.0 , 0.0 , 0.0 , 0.0 , 

55.0 , 4077.43589744 , 4351.79487179 , 3836.92307692 , 4197.43589744 , 4185.64102564 , 4069.23076923 , 4477.43589744 , 4032.82051282 , 4368.71794872 , 4231.28205128 , 4295.38461538 , 4170.76923077 , 4236.41025641 , 4172.30769231 , 1681.0 , 1744.0 , 22.013 , 0.0 , 0.0 , 0.0 , 0.0 , 

56.0 , 4090.76923077 , 4356.41025641 , 3837.43589744 , 4198.46153846 , 4183.58974359 , 4070.25641026 , 4476.41025641 , 4035.38461538 , 4348.20512821 , 4230.76923077 , 4383.07692308 , 4154.87179487 , 4224.1025641 , 4167.69230769 , 1680.0 , 1745.0 , 22.019 , 0.0 , 0.0 , 0.0 , 0.0 , 

57.0 , 4117.94871795 , 4353.84615385 , 3855.8974359 , 4195.38461538 , 4182.56410256 , 4064.1025641 , 4474.35897436 , 4038.97435897 , 4369.23076923 , 4230.25641026 , 4409.74358974 , 4167.17948718 , 4248.20512821 , 4152.82051282 , 1680.0 , 1746.0 , 22.027 , 0.0 , 0.0 , 0.0 , 0.0 , 

58.0 , 4119.48717949 , 4356.41025641 , 3845.12820513 , 4191.79487179 , 4179.48717949 , 4047.17948718 , 4473.33333333 , 4031.79487179 , 4390.76923077 , 4232.30769231 , 4346.66666667 , 4167.17948718 , 4262.05128205 , 4137.94871795 , 1682.0 , 1745.0 , 22.035 , 0.0 , 0.0 , 0.0 , 0.0 , 

59.0 , 4077.94871795 , 4354.35897436 , 3841.02564103 , 4201.53846154 , 4188.71794872 , 4047.17948718 , 4478.46153846 , 4026.15384615 , 4327.69230769 , 4229.74358974 , 4279.48717949 , 4141.53846154 , 4212.82051282 , 4146.15384615 , 1681.0 , 1743.0 , 22.043 , 0.0 , 0.0 , 0.0 , 0.0 , 

60.0 , 4077.94871795 , 4352.30769231 , 3842.05128205 , 4198.97435897 , 4186.15384615 , 4062.05128205 , 4479.48717949 , 4031.28205128 , 4316.92307692 , 4227.17948718 , 4318.46153846 , 4157.43589744 , 4214.87179487 , 4188.20512821 , 1679.0 , 1745.0 , 22.051 , 0.0 , 0.0 , 0.0 , 0.0 , 

61.0 , 4116.41025641 , 4362.05128205 , 3843.58974359 , 4193.84615385 , 4179.48717949 , 4048.71794872 , 4478.46153846 , 4032.30769231 , 4378.46153846 , 4229.74358974 , 4362.05128205 , 4164.1025641 , 4261.53846154 , 4165.64102564 , 1683.0 , 1744.0 , 22.059 , 0.0 , 0.0 , 0.0 , 0.0 , 

62.0 , 4095.38461538 , 4356.41025641 , 3841.02564103 , 4193.84615385 , 4181.53846154 , 4048.20512821 , 4470.25641026 , 4025.64102564 , 4387.17948718 , 4230.25641026 , 4352.82051282 , 4172.30769231 , 4259.48717949 , 4132.82051282 , 1678.0 , 1744.0 , 22.066 , 0.0 , 0.0 , 0.0 , 0.0 , 

63.0 , 4053.33333333 , 4355.8974359 , 3837.94871795 , 4202.05128205 , 4192.82051282 , 4072.30769231 , 4490.76923077 , 4025.64102564 , 4356.41025641 , 4227.69230769 , 4338.97435897 , 4163.07692308 , 4230.76923077 , 4145.12820513 , 1682.0 , 1745.0 , 22.074 , 0.0 , 0.0 , 0.0 , 0.0 , 

64.0 , 4100.51282051 , 4364.1025641 , 3849.74358974 , 4201.02564103 , 4188.20512821 , 4056.41025641 , 4487.69230769 , 4032.30769231 , 4326.66666667 , 4230.76923077 , 4326.66666667 , 4123.07692308 , 4225.64102564 , 4168.20512821 , 1681.0 , 1745.0 , 22.082 , 0.0 , 0.0 , 0.0 , 0.0 , 

65.0 , 4156.41025641 , 4364.1025641 , 3835.8974359 , 4183.07692308 , 4166.15384615 , 4038.46153846 , 4464.1025641 , 4029.74358974 , 4357.94871795 , 4231.79487179 , 4342.05128205 , 4141.53846154 , 4263.07692308 , 4191.28205128 , 1679.0 , 1745.0 , 22.09 , 0.0 , 0.0 , 0.0 , 0.0 , 

66.0 , 4093.33333333 , 4360.0 , 3837.94871795 , 4198.46153846 , 4183.58974359 , 4050.25641026 , 4492.30769231 , 4027.17948718 , 4367.17948718 , 4225.64102564 , 4346.66666667 , 4164.61538462 , 4246.15384615 , 4171.79487179 , 1681.0 , 1744.0 , 22.098 , 0.0 , 0.0 , 0.0 , 0.0 , 

67.0 , 4081.53846154 , 4358.97435897 , 3851.79487179 , 4208.20512821 , 4191.28205128 , 4053.33333333 , 4487.69230769 , 4032.82051282 , 4346.66666667 , 4227.17948718 , 4337.94871795 , 4170.25641026 , 4224.61538462 , 4146.15384615 , 1681.0 , 1744.0 , 22.105 , 0.0 , 0.0 , 0.0 , 0.0 , 

68.0 , 4128.71794872 , 4362.05128205 , 3831.28205128 , 4193.84615385 , 4172.30769231 , 4041.02564103 , 4478.46153846 , 4029.23076923 , 4376.41025641 , 4228.71794872 , 4350.76923077 , 4161.53846154 , 4261.53846154 , 4144.1025641 , 1680.0 , 1744.0 , 22.113 , 0.0 , 0.0 , 0.0 , 0.0 , 

69.0 , 4092.30769231 , 4360.0 , 3835.8974359 , 4204.1025641 , 4186.15384615 , 4041.02564103 , 4494.87179487 , 4025.12820513 , 4357.43589744 , 4226.15384615 , 4350.76923077 , 4124.61538462 , 4242.56410256 , 4148.71794872 , 1680.0 , 1744.0 , 22.121 , 0.0 , 0.0 , 0.0 , 0.0 , 

70.0 , 4081.53846154 , 4358.46153846 , 3842.05128205 , 4203.58974359 , 4185.12820513 , 4056.92307692 , 4483.07692308 , 4032.30769231 , 4332.82051282 , 4229.23076923 , 4337.43589744 , 4143.58974359 , 4229.23076923 , 4174.87179487 , 1682.0 , 1745.0 , 22.129 , 0.0 , 0.0 , 0.0 , 0.0 , 

71.0 , 4107.69230769 , 4360.0 , 3836.41025641 , 4194.35897436 , 4175.38461538 , 4062.56410256 , 4494.35897436 , 4035.38461538 , 4355.38461538 , 4231.28205128 , 4344.61538462 , 4175.8974359 , 4239.48717949 , 4167.69230769 , 1679.0 , 1745.0 , 22.137 , 0.0 , 0.0 , 0.0 , 0.0 , 

72.0 , 4095.38461538 , 4358.46153846 , 3848.71794872 , 4206.15384615 , 4187.69230769 , 4048.71794872 , 4490.25641026 , 4031.79487179 , 4344.1025641 , 4230.25641026 , 4346.66666667 , 4179.48717949 , 4218.97435897 , 4158.97435897 , 1681.0 , 1744.0 , 22.144 , 0.0 , 0.0 , 0.0 , 0.0 , 

73.0 , 4092.82051282 , 4352.30769231 , 3841.02564103 , 4198.46153846 , 4181.02564103 , 4039.48717949 , 4481.02564103 , 4034.35897436 , 4352.30769231 , 4229.74358974 , 4345.12820513 , 4160.51282051 , 4236.92307692 , 4175.38461538 , 1680.0 , 1745.0 , 22.151 , 0.0 , 0.0 , 0.0 , 0.0 , 

74.0 , 4102.05128205 , 4356.92307692 , 3836.92307692 , 4195.38461538 , 4179.48717949 , 4056.41025641 , 4496.41025641 , 4033.84615385 , 4352.30769231 , 4228.71794872 , 4348.71794872 , 4112.30769231 , 4237.43589744 , 4162.56410256 , 1681.0 , 1745.0 , 22.159 , 0.0 , 0.0 , 0.0 , 0.0 , 

75.0 , 4102.05128205 , 4355.8974359 , 3856.41025641 , 4208.20512821 , 4188.71794872 , 4040.51282051 , 4474.87179487 , 4031.79487179 , 4333.33333333 , 4230.25641026 , 4348.71794872 , 4127.17948718 , 4235.8974359 , 4160.51282051 , 1680.0 , 1743.0 , 22.168 , 0.0 , 0.0 , 0.0 , 0.0 , 

76.0 , 4087.17948718 , 4350.25641026 , 3851.79487179 , 4194.35897436 , 4183.07692308 , 4032.30769231 , 4486.66666667 , 4035.38461538 , 4351.28205128 , 4231.28205128 , 4354.35897436 , 4163.58974359 , 4254.35897436 , 4169.74358974 , 1680.0 , 1745.0 , 22.176 , 0.0 , 0.0 , 0.0 , 0.0 , 

77.0 , 4072.82051282 , 4357.94871795 , 3850.25641026 , 4195.38461538 , 4184.61538462 , 4048.71794872 , 4494.87179487 , 4032.82051282 , 4347.69230769 , 4229.74358974 , 4348.20512821 , 4145.12820513 , 4228.20512821 , 4158.46153846 , 1681.0 , 1744.0 , 22.183 , 0.0 , 0.0 , 0.0 , 0.0 , 

78.0 , 4091.28205128 , 4355.38461538 , 3851.79487179 , 4202.56410256 , 4184.61538462 , 4037.43589744 , 4477.43589744 , 4032.82051282 , 4332.82051282 , 4228.71794872 , 4340.0 , 4140.51282051 , 4219.48717949 , 4157.94871795 , 1680.0 , 1744.0 , 22.191 , 0.0 , 0.0 , 0.0 , 0.0 , 

79.0 , 4108.71794872 , 4356.41025641 , 3843.58974359 , 4194.87179487 , 4178.97435897 , 4087.69230769 , 4494.35897436 , 4036.41025641 , 4343.58974359 , 4230.25641026 , 4347.69230769 , 4142.56410256 , 4233.33333333 , 4160.0 , 1680.0 , 1745.0 , 22.199 , 0.0 , 0.0 , 0.0 , 0.0 , 

80.0 , 4100.0 , 4357.94871795 , 3847.17948718 , 4199.48717949 , 4180.51282051 , 4132.82051282 , 4470.76923077 , 4032.82051282 , 4342.56410256 , 4232.82051282 , 4352.30769231 , 4143.58974359 , 4230.76923077 , 4155.8974359 , 1681.0 , 1744.0 , 22.207 , 0.0 , 0.0 , 0.0 , 0.0 , 

81.0 , 4082.05128205 , 4352.30769231 , 3837.94871795 , 4198.46153846 , 4182.05128205 , 4062.05128205 , 4487.69230769 , 4038.97435897 , 4337.94871795 , 4233.33333333 , 4356.92307692 , 4153.33333333 , 4235.8974359 , 4165.12820513 , 1680.0 , 1745.0 , 22.215 , 0.0 , 0.0 , 0.0 , 0.0 , 

82.0 , 4081.53846154 , 4362.05128205 , 3836.41025641 , 4201.53846154 , 4185.12820513 , 3988.20512821 , 4501.02564103 , 4040.0 , 4341.53846154 , 4231.79487179 , 4355.38461538 , 4149.23076923 , 4234.35897436 , 4168.71794872 , 1680.0 , 1744.0 , 22.223 , 0.0 , 0.0 , 0.0 , 0.0 , 

83.0 , 4103.07692308 , 4357.43589744 , 3838.46153846 , 4199.48717949 , 4178.97435897 , 4006.66666667 , 4467.69230769 , 4036.92307692 , 4345.12820513 , 4232.30769231 , 4351.79487179 , 4149.23076923 , 4228.20512821 , 4156.41025641 , 1680.0 , 1745.0 , 22.231 , 0.0 , 0.0 , 0.0 , 0.0 , 

84.0 , 4106.15384615 , 4349.23076923 , 3835.8974359 , 4195.38461538 , 4182.05128205 , 4105.12820513 , 4498.97435897 , 4038.46153846 , 4349.23076923 , 4231.28205128 , 4361.02564103 , 4153.84615385 , 4237.43589744 , 4150.76923077 , 1680.0 , 1744.0 , 22.238 , 0.0 , 0.0 , 0.0 , 0.0 , 

85.0 , 4113.33333333 , 4360.0 , 3849.23076923 , 4201.53846154 , 4186.66666667 , 4146.66666667 , 4475.8974359 , 4038.97435897 , 4348.20512821 , 4231.28205128 , 4366.66666667 , 4150.76923077 , 4244.1025641 , 4155.38461538 , 1680.0 , 1745.0 , 22.245 , 0.0 , 0.0 , 0.0 , 0.0 , 

86.0 , 4097.94871795 , 4357.94871795 , 3840.51282051 , 4197.43589744 , 4178.97435897 , 4053.33333333 , 4482.05128205 , 4050.25641026 , 4366.15384615 , 4236.41025641 , 4365.12820513 , 4157.94871795 , 4249.23076923 , 4166.15384615 , 1681.0 , 1744.0 , 22.254 , 0.0 , 0.0 , 0.0 , 0.0 , 

87.0 , 4062.56410256 , 4355.8974359 , 3837.94871795 , 4202.56410256 , 4183.07692308 , 3966.66666667 , 4508.20512821 , 4041.02564103 , 4371.79487179 , 4232.30769231 , 4355.8974359 , 4154.35897436 , 4243.58974359 , 4160.0 , 1679.0 , 1745.0 , 22.262 , 0.0 , 0.0 , 0.0 , 0.0 , 

88.0 , 4089.23076923 , 4359.48717949 , 3852.82051282 , 4205.64102564 , 4184.1025641 , 4003.58974359 , 4462.05128205 , 4029.23076923 , 4343.07692308 , 4227.17948718 , 4355.38461538 , 4149.74358974 , 4224.1025641 , 4148.20512821 , 1681.0 , 1744.0 , 22.27 , 0.0 , 0.0 , 0.0 , 0.0 , 

89.0 , 4118.46153846 , 4355.8974359 , 3855.38461538 , 4196.92307692 , 4181.02564103 , 4098.97435897 , 4492.82051282 , 4044.61538462 , 4345.64102564 , 4231.28205128 , 4352.82051282 , 4157.94871795 , 4231.28205128 , 4153.33333333 , 1680.0 , 1744.0 , 22.277 , 0.0 , 0.0 , 0.0 , 0.0 , 

90.0 , 4101.53846154 , 4357.43589744 , 3849.74358974 , 4198.97435897 , 4177.94871795 , 4132.30769231 , 4483.58974359 , 4044.61538462 , 4365.64102564 , 4234.87179487 , 4340.0 , 4157.43589744 , 4248.71794872 , 4158.46153846 , 1680.0 , 1745.0 , 22.284 , 0.0 , 0.0 , 0.0 , 0.0 , 

91.0 , 4089.74358974 , 4357.43589744 , 3838.46153846 , 4198.46153846 , 4180.0 , 4065.12820513 , 4470.76923077 , 4044.61538462 , 4364.1025641 , 4235.38461538 , 4353.33333333 , 4162.05128205 , 4247.17948718 , 4160.51282051 , 1680.0 , 1744.0 , 22.293 , 0.0 , 0.0 , 0.0 , 0.0 , 

92.0 , 4103.07692308 , 4358.97435897 , 3846.66666667 , 4198.97435897 , 4186.66666667 , 3999.48717949 , 4509.23076923 , 4042.56410256 , 4352.82051282 , 4232.30769231 , 4367.17948718 , 4164.61538462 , 4238.97435897 , 4155.8974359 , 1681.0 , 1745.0 , 22.301 , 0.0 , 0.0 , 0.0 , 0.0 , 

93.0 , 4108.20512821 , 4358.97435897 , 3847.17948718 , 4198.97435897 , 4177.43589744 , 3998.46153846 , 4471.28205128 , 4036.92307692 , 4356.92307692 , 4234.87179487 , 4385.64102564 , 4162.56410256 , 4234.87179487 , 4146.15384615 , 1680.0 , 1744.0 , 22.309 , 0.0 , 0.0 , 0.0 , 0.0 , 

94.0 , 4092.82051282 , 4352.30769231 , 3838.97435897 , 4198.46153846 , 4185.64102564 , 4068.20512821 , 4486.15384615 , 4046.66666667 , 4355.8974359 , 4235.8974359 , 4356.92307692 , 4171.79487179 , 4244.1025641 , 4150.76923077 , 1680.0 , 1745.0 , 22.317 , 0.0 , 0.0 , 0.0 , 0.0 , 

95.0 , 4097.43589744 , 4357.43589744 , 3849.74358974 , 4203.58974359 , 4187.17948718 , 4126.66666667 , 4500.51282051 , 4040.51282051 , 4345.12820513 , 4230.25641026 , 4297.94871795 , 4169.23076923 , 4242.05128205 , 4155.8974359 , 1680.0 , 1744.0 , 22.324 , 0.0 , 0.0 , 0.0 , 0.0 , 

96.0 , 4101.53846154 , 4360.0 , 3839.48717949 , 4200.0 , 4177.43589744 , 4074.35897436 , 4475.38461538 , 4035.8974359 , 4364.61538462 , 4234.87179487 , 4330.76923077 , 4164.1025641 , 4232.30769231 , 4148.20512821 , 1680.0 , 1745.0 , 22.332 , 0.0 , 0.0 , 0.0 , 0.0 , 

97.0 , 4090.76923077 , 4355.8974359 , 3835.38461538 , 4196.92307692 , 4187.69230769 , 4024.61538462 , 4498.46153846 , 4042.05128205 , 4347.69230769 , 4235.38461538 , 4382.05128205 , 4171.28205128 , 4244.1025641 , 4146.15384615 , 1680.0 , 1744.0 , 22.34 , 0.0 , 0.0 , 0.0 , 0.0 , 

98.0 , 4093.84615385 , 4354.87179487 , 3841.53846154 , 4197.43589744 , 4181.02564103 , 4039.48717949 , 4484.61538462 , 4031.28205128 , 4317.43589744 , 4228.20512821 , 4381.02564103 , 4173.84615385 , 4247.69230769 , 4164.1025641 , 1680.0 , 1745.0 , 22.348 , 0.0 , 0.0 , 0.0 , 0.0 , 

99.0 , 4101.53846154 , 4358.46153846 , 3838.46153846 , 4200.0 , 4186.15384615 , 4065.64102564 , 4484.61538462 , 4035.8974359 , 4353.84615385 , 4232.82051282 , 4353.33333333 , 4172.30769231 , 4245.12820513 , 4156.92307692 , 1681.0 , 1744.0 , 22.356 , 0.0 , 0.0 , 0.0 , 0.0 , 

100.0 , 4102.05128205 , 4363.58974359 , 3842.05128205 , 4201.02564103 , 4189.74358974 , 4096.92307692 , 4511.28205128 , 4040.51282051 , 4375.8974359 , 4237.43589744 , 4322.05128205 , 4176.41025641 , 4248.71794872 , 4147.17948718 , 1680.0 , 1745.0 , 22.362 , 0.0 , 0.0 , 0.0 , 0.0 , 

101.0 , 4082.05128205 , 4357.94871795 , 3838.46153846 , 4201.02564103 , 4181.53846154 , 4088.71794872 , 4482.05128205 , 4028.71794872 , 4351.79487179 , 4233.84615385 , 4335.8974359 , 4176.92307692 , 4237.43589744 , 4159.48717949 , 1680.0 , 1745.0 , 22.371 , 0.0 , 0.0 , 0.0 , 0.0 , 

102.0 , 4070.76923077 , 4354.87179487 , 3838.97435897 , 4203.07692308 , 4189.74358974 , 4045.12820513 , 4480.51282051 , 4034.35897436 , 4331.79487179 , 4229.74358974 , 4360.51282051 , 4160.51282051 , 4235.38461538 , 4143.58974359 , 1681.0 , 1744.0 , 22.379 , 0.0 , 0.0 , 0.0 , 0.0 , 

103.0 , 4112.30769231 , 4367.69230769 , 3826.15384615 , 4190.76923077 , 4174.87179487 , 4045.12820513 , 4538.97435897 , 4048.20512821 , 4353.33333333 , 4232.82051282 , 4366.66666667 , 4161.53846154 , 4240.0 , 4139.48717949 , 1680.0 , 1745.0 , 22.387 , 0.0 , 0.0 , 0.0 , 0.0 , 

104.0 , 4103.58974359 , 4365.64102564 , 3840.51282051 , 4207.17948718 , 4184.1025641 , 4082.56410256 , 4490.76923077 , 4032.30769231 , 4360.0 , 4235.38461538 , 4349.23076923 , 4170.25641026 , 4236.41025641 , 4148.71794872 , 1680.0 , 1745.0 , 22.394 , 0.0 , 0.0 , 0.0 , 0.0 , 

105.0 , 4086.66666667 , 4354.35897436 , 3854.35897436 , 4209.74358974 , 4189.23076923 , 4085.64102564 , 4465.12820513 , 4028.20512821 , 4344.61538462 , 4231.79487179 , 4327.69230769 , 4165.12820513 , 4241.53846154 , 4153.84615385 , 1680.0 , 1745.0 , 22.403 , 0.0 , 0.0 , 0.0 , 0.0 , 

106.0 , 4133.33333333 , 4363.58974359 , 3818.46153846 , 4183.07692308 , 4170.25641026 , 4078.97435897 , 4543.58974359 , 4044.1025641 , 4352.30769231 , 4232.30769231 , 4337.94871795 , 4167.69230769 , 4244.1025641 , 4169.74358974 , 1664.0 , 1683.0 , 22.41 , 0.0 , 0.0 , 0.0 , 0.0 , 

107.0 , 4105.64102564 , 4360.51282051 , 3846.15384615 , 4207.69230769 , 4190.25641026 , 4056.92307692 , 4485.64102564 , 4029.74358974 , 4375.38461538 , 4232.30769231 , 4357.94871795 , 4160.51282051 , 4248.20512821 , 4160.0 , 1632.0 , 1708.0 , 22.417 , 0.0 , 0.0 , 0.0 , 0.0 , 

108.0 , 4076.92307692 , 4352.82051282 , 3852.82051282 , 4207.69230769 , 4184.61538462 , 4038.97435897 , 4481.53846154 , 4029.23076923 , 4393.84615385 , 4231.28205128 , 4364.61538462 , 4154.87179487 , 4251.28205128 , 4149.74358974 , 1703.0 , 1829.0 , 22.426 , 0.0 , 0.0 , 0.0 , 0.0 , 

109.0 , 4101.53846154 , 4361.02564103 , 3825.64102564 , 4192.82051282 , 4180.0 , 4082.05128205 , 4528.71794872 , 4038.46153846 , 4385.12820513 , 4231.28205128 , 4351.79487179 , 4162.56410256 , 4241.53846154 , 4142.56410256 , 1730.0 , 1725.0 , 22.433 , 0.0 , 0.0 , 0.0 , 0.0 , 

110.0 , 4101.02564103 , 4357.43589744 , 3855.8974359 , 4213.33333333 , 4190.76923077 , 4089.74358974 , 4490.76923077 , 4026.15384615 , 4377.94871795 , 4230.25641026 , 4335.8974359 , 4173.33333333 , 4237.94871795 , 4135.8974359 , 1603.0 , 1879.0 , 22.442 , 0.0 , 0.0 , 0.0 , 0.0 , 

111.0 , 4106.15384615 , 4354.35897436 , 3852.30769231 , 4202.05128205 , 4180.51282051 , 4084.1025641 , 4506.15384615 , 4028.71794872 , 4389.23076923 , 4233.33333333 , 4348.71794872 , 4181.02564103 , 4254.87179487 , 4164.61538462 , 1628.0 , 1843.0 , 22.45 , 0.0 , 0.0 , 0.0 , 0.0 , 

112.0 , 4101.02564103 , 4354.87179487 , 3840.0 , 4173.33333333 , 4172.30769231 , 4070.25641026 , 4557.43589744 , 4035.8974359 , 4385.64102564 , 4232.30769231 , 4350.25641026 , 4145.12820513 , 4242.56410256 , 4174.87179487 , 1624.0 , 1754.0 , 22.457 , 0.0 , 0.0 , 0.0 , 0.0 , 

113.0 , 4128.20512821 , 4367.17948718 , 3838.97435897 , 4253.84615385 , 4172.30769231 , 4015.8974359 , 4416.92307692 , 4039.48717949 , 4387.17948718 , 4232.30769231 , 4347.69230769 , 4131.28205128 , 4216.92307692 , 4140.51282051 , 1647.0 , 1735.0 , 22.465 , 0.0 , 0.0 , 0.0 , 0.0 , 

114.0 , 4133.84615385 , 4358.46153846 , 3790.25641026 , 4329.74358974 , 4187.17948718 , 4021.02564103 , 4555.38461538 , 4022.56410256 , 4382.05128205 , 4232.82051282 , 4363.07692308 , 4162.05128205 , 4237.94871795 , 4130.76923077 , 1683.0 , 1692.0 , 22.473 , 0.0 , 0.0 , 0.0 , 0.0 , 

115.0 , 4034.87179487 , 4328.20512821 , 3801.02564103 , 4218.97435897 , 4172.82051282 , 4077.43589744 , 4669.74358974 , 4019.48717949 , 4354.87179487 , 4229.74358974 , 4327.69230769 , 4160.51282051 , 4226.66666667 , 4164.61538462 , 1707.0 , 1713.0 , 22.481 , 0.0 , 0.0 , 0.0 , 0.0 , 

116.0 , 4216.41025641 , 4409.23076923 , 3983.07692308 , 4341.53846154 , 4273.33333333 , 3789.23076923 , 3258.46153846 , 4083.07692308 , 4480.0 , 4234.87179487 , 4358.46153846 , 4196.41025641 , 4284.61538462 , 4208.20512821 , 1707.0 , 1766.0 , 22.489 , 0.0 , 0.0 , 0.0 , 0.0 , 

117.0 , 4202.56410256 , 4386.66666667 , 3847.69230769 , 4547.17948718 , 4317.94871795 , 3816.92307692 , 3806.66666667 , 4047.69230769 , 4523.58974359 , 4239.48717949 , 4398.97435897 , 4166.15384615 , 4283.07692308 , 4107.69230769 , 1707.0 , 1735.0 , 22.496 , 0.0 , 0.0 , 0.0 , 0.0 , 

118.0 , 3836.92307692 , 4278.46153846 , 3666.15384615 , 4349.74358974 , 4181.02564103 , 4172.82051282 , 4912.82051282 , 3977.94871795 , 4333.33333333 , 4229.23076923 , 4322.56410256 , 4116.92307692 , 4138.46153846 , 4108.71794872 , 1698.0 , 1746.0 , 22.504 , 0.0 , 0.0 , 0.0 , 0.0 , 

119.0 , 3942.56410256 , 4360.0 , 3927.17948718 , 4114.35897436 , 4175.38461538 , 3925.64102564 , 4237.94871795 , 4038.97435897 , 4371.79487179 , 4228.71794872 , 4323.07692308 , 4189.23076923 , 4179.48717949 , 4222.05128205 , 1695.0 , 1769.0 , 22.512 , 0.0 , 0.0 , 0.0 , 0.0 , 

120.0 , 3990.25641026 , 4325.12820513 , 3884.1025641 , 4084.61538462 , 4112.82051282 , 4121.02564103 , 4730.76923077 , 4035.38461538 , 4457.94871795 , 4242.56410256 , 4371.79487179 , 4183.58974359 , 4270.76923077 , 4105.12820513 , 1714.0 , 1760.0 , 22.52 , 0.0 , 0.0 , 0.0 , 0.0 , 

121.0 , 4020.0 , 4293.84615385 , 3818.46153846 , 4169.23076923 , 4119.48717949 , 4215.38461538 , 4488.71794872 , 4025.64102564 , 4413.84615385 , 4245.12820513 , 4373.84615385 , 4157.94871795 , 4255.8974359 , 4116.41025641 , 1697.0 , 1751.0 , 22.528 , 0.0 , 0.0 , 0.0 , 0.0 , 

122.0 , 4117.43589744 , 4343.07692308 , 3981.02564103 , 4160.51282051 , 4199.48717949 , 3979.48717949 , 4334.35897436 , 4049.23076923 , 4470.25641026 , 4242.56410256 , 4374.87179487 , 4172.30769231 , 4231.28205128 , 4120.51282051 , 1692.0 , 1757.0 , 22.536 , 0.0 , 0.0 , 0.0 , 0.0 , 

123.0 , 3944.1025641 , 4286.66666667 , 3897.94871795 , 4104.1025641 , 4100.0 , 4230.76923077 , 4654.87179487 , 4013.33333333 , 4444.61538462 , 4243.58974359 , 4353.33333333 , 4136.92307692 , 4181.53846154 , 4071.79487179 , 1715.0 , 1750.0 , 22.543 , 0.0 , 0.0 , 0.0 , 0.0 , 

124.0 , 4106.66666667 , 4342.56410256 , 3953.84615385 , 4193.33333333 , 4158.97435897 , 4048.71794872 , 4127.69230769 , 4053.84615385 , 4434.35897436 , 4245.64102564 , 4370.25641026 , 4157.94871795 , 4214.87179487 , 4218.46153846 , 1701.0 , 1757.0 , 22.551 , 0.0 , 0.0 , 0.0 , 0.0 , 

125.0 , 4154.35897436 , 4350.76923077 , 3964.61538462 , 4200.0 , 4201.53846154 , 4159.48717949 , 4537.94871795 , 4066.66666667 , 4485.64102564 , 4243.07692308 , 4406.15384615 , 4186.15384615 , 4257.94871795 , 4151.79487179 , 1688.0 , 1759.0 , 22.559 , 0.0 , 0.0 , 0.0 , 0.0 , 

126.0 , 3967.69230769 , 4297.94871795 , 3855.38461538 , 4135.8974359 , 4135.8974359 , 4365.64102564 , 4436.92307692 , 4014.35897436 , 4468.20512821 , 4240.51282051 , 4385.12820513 , 4162.05128205 , 4226.15384615 , 4068.71794872 , 1699.0 , 1756.0 , 22.566 , 0.0 , 0.0 , 0.0 , 0.0 , 

127.0 , 4070.25641026 , 4360.51282051 , 3944.1025641 , 4191.28205128 , 4215.38461538 , 4068.20512821 , 4068.71794872 , 4058.46153846 , 4461.02564103 , 4247.17948718 , 4372.82051282 , 4161.02564103 , 4214.35897436 , 4157.94871795 , 1756.0 , 1699.0 , 22.575 , 0.0 , 0.0 , 0.0 , 0.0 , 

128.0 , 4137.43589744 , 4370.25641026 , 4004.61538462 , 4218.46153846 , 4237.43589744 , 4071.79487179 , 4491.28205128 , 4072.82051282 , 4482.05128205 , 4243.07692308 , 4402.56410256 , 4182.05128205 , 4237.94871795 , 4153.84615385 , 1717.0 , 1728.0 , 22.582 , 0.0 , 0.0 , 0.0 , 0.0 , 

0.0 , 4070.25641026 , 4316.92307692 , 3967.17948718 , 4158.97435897 , 4151.28205128 , 4226.15384615 , 4292.82051282 , 4004.61538462 , 4460.0 , 4234.87179487 , 4379.48717949 , 4160.51282051 , 4230.76923077 , 4131.79487179 , 1659.0 , 1751.0 , 22.59 , 0.0 , 0.0 , 0.0 , 0.0 , 

1.0 , 4212.30769231 , 4385.64102564 , 3965.64102564 , 4254.87179487 , 4235.38461538 , 3997.94871795 , 3854.87179487 , 4048.20512821 , 4460.0 , 4242.05128205 , 4377.94871795 , 4171.28205128 , 4232.82051282 , 4162.05128205 , 1645.0 , 1774.0 , 22.598 , 0.0 , 0.0 , 0.0 , 0.0 , 

2.0 , 4162.05128205 , 4391.79487179 , 3913.33333333 , 4278.97435897 , 4255.38461538 , 4020.0 , 4671.79487179 , 4071.79487179 , 4469.74358974 , 4244.1025641 , 4393.33333333 , 4181.02564103 , 4241.02564103 , 4143.58974359 , 1651.0 , 1739.0 , 22.606 , 0.0 , 0.0 , 0.0 , 0.0 , 

3.0 , 3982.56410256 , 4322.56410256 , 3839.48717949 , 4195.8974359 , 4137.43589744 , 4263.07692308 , 4026.66666667 , 4013.84615385 , 4412.30769231 , 4234.35897436 , 4345.64102564 , 4148.71794872 , 4201.02564103 , 4138.97435897 , 1654.0 , 1715.0 , 22.614 , 0.0 , 0.0 , 0.0 , 0.0 , 

4.0 , 4225.12820513 , 4412.82051282 , 3964.61538462 , 4297.94871795 , 4253.84615385 , 3863.58974359 , 3410.25641026 , 4062.56410256 , 4461.02564103 , 4238.46153846 , 4361.53846154 , 4167.17948718 , 4209.74358974 , 4191.79487179 , 1666.0 , 1722.0 , 22.622 , 0.0 , 0.0 , 0.0 , 0.0 , 

5.0 , 4195.8974359 , 4377.43589744 , 3890.25641026 , 4263.58974359 , 4226.66666667 , 3999.48717949 , 4859.48717949 , 4053.84615385 , 4488.71794872 , 4241.53846154 , 4371.28205128 , 4164.61538462 , 4231.28205128 , 4166.66666667 , 1672.0 , 1731.0 , 22.628 , 0.0 , 0.0 , 0.0 , 0.0 , 

6.0 , 4104.1025641 , 4349.74358974 , 3843.58974359 , 4217.43589744 , 4141.53846154 , 4133.84615385 , 3916.41025641 , 4016.41025641 , 4414.35897436 , 4234.35897436 , 4346.66666667 , 4153.84615385 , 4219.48717949 , 4172.82051282 , 1677.0 , 1731.0 , 22.637 , 0.0 , 0.0 , 0.0 , 0.0 , 

7.0 , 4184.1025641 , 4413.84615385 , 3977.94871795 , 4267.69230769 , 4240.0 , 3810.25641026 , 3612.82051282 , 4060.51282051 , 4457.94871795 , 4239.48717949 , 4370.25641026 , 4174.87179487 , 4227.17948718 , 4192.82051282 , 1682.0 , 1740.0 , 22.645 , 0.0 , 0.0 , 0.0 , 0.0 , 

8.0 , 4040.51282051 , 4336.92307692 , 3834.35897436 , 4176.41025641 , 4162.56410256 , 4091.79487179 , 4707.69230769 , 4036.92307692 , 4453.33333333 , 4239.48717949 , 4350.25641026 , 4158.46153846 , 4212.30769231 , 4157.43589744 , 1684.0 , 1743.0 , 22.653 , 0.0 , 0.0 , 0.0 , 0.0 , 

9.0 , 4137.43589744 , 4354.87179487 , 3838.46153846 , 4164.61538462 , 4105.12820513 , 4057.94871795 , 3617.43589744 , 4032.30769231 , 4416.41025641 , 4235.8974359 , 4338.46153846 , 4151.28205128 , 4208.20512821 , 4177.94871795 , 1685.0 , 1736.0 , 22.661 , 0.0 , 0.0 , 0.0 , 0.0 , 

10.0 , 4214.35897436 , 4390.25641026 , 3912.30769231 , 4200.51282051 , 4130.25641026 , 3925.64102564 , 3562.05128205 , 4056.41025641 , 4451.79487179 , 4243.58974359 , 4363.07692308 , 4163.58974359 , 4229.74358974 , 4209.23076923 , 1690.0 , 1754.0 , 22.668 , 0.0 , 0.0 , 0.0 , 0.0 , 

11.0 , 4104.1025641 , 4356.41025641 , 3871.28205128 , 4183.58974359 , 4150.76923077 , 4041.53846154 , 4238.97435897 , 4037.94871795 , 4453.84615385 , 4240.0 , 4361.53846154 , 4166.66666667 , 4232.82051282 , 4194.87179487 , 1689.0 , 1741.0 , 22.676 , 0.0 , 0.0 , 0.0 , 0.0 , 

12.0 , 4112.30769231 , 4364.61538462 , 3874.35897436 , 4176.92307692 , 4190.25641026 , 3973.33333333 , 3966.66666667 , 4035.8974359 , 4436.92307692 , 4236.41025641 , 4347.69230769 , 4161.53846154 , 4220.0 , 4175.38461538 , 1710.0 , 1712.0 , 22.684 , 0.0 , 0.0 , 0.0 , 0.0 , 

13.0 , 4077.43589744 , 4361.53846154 , 3815.8974359 , 4170.25641026 , 4167.17948718 , 4035.38461538 , 4075.8974359 , 4031.28205128 , 4420.51282051 , 4235.8974359 , 4338.97435897 , 4156.92307692 , 4208.71794872 , 4175.38461538 , 1716.0 , 1734.0 , 22.692 , 0.0 , 0.0 , 0.0 , 0.0 , 

14.0 , 4063.58974359 , 4387.17948718 , 3881.02564103 , 4202.56410256 , 4199.48717949 , 4054.35897436 , 3861.53846154 , 4040.51282051 , 4430.25641026 , 4232.82051282 , 4353.33333333 , 4168.20512821 , 4218.97435897 , 4181.02564103 , 1733.0 , 1749.0 , 22.7 , 0.0 , 0.0 , 0.0 , 0.0 , 

15.0 , 4069.23076923 , 4357.43589744 , 3861.53846154 , 4189.23076923 , 4191.28205128 , 4091.28205128 , 4198.97435897 , 4047.17948718 , 4443.07692308 , 4239.48717949 , 4355.8974359 , 4167.17948718 , 4218.46153846 , 4178.97435897 , 1723.0 , 1744.0 , 22.708 , 0.0 , 0.0 , 0.0 , 0.0 , 

16.0 , 4017.43589744 , 4296.41025641 , 3761.53846154 , 4142.05128205 , 4123.58974359 , 4123.07692308 , 4984.61538462 , 4018.46153846 , 4418.46153846 , 4242.05128205 , 4340.0 , 4160.0 , 4207.69230769 , 4176.41025641 , 1722.0 , 1746.0 , 22.715 , 0.0 , 0.0 , 0.0 , 0.0 , 

17.0 , 4091.79487179 , 4367.17948718 , 3855.38461538 , 4186.15384615 , 4179.48717949 , 3991.28205128 , 4394.87179487 , 4038.97435897 , 4432.30769231 , 4236.41025641 , 4347.69230769 , 4162.56410256 , 4217.43589744 , 4174.35897436 , 1721.0 , 1740.0 , 22.723 , 0.0 , 0.0 , 0.0 , 0.0 , 

18.0 , 4152.30769231 , 4398.46153846 , 3899.48717949 , 4217.43589744 , 4204.61538462 , 4005.64102564 , 4083.07692308 , 4064.61538462 , 4472.30769231 , 4241.53846154 , 4363.07692308 , 4168.71794872 , 4227.17948718 , 4176.41025641 , 1718.0 , 1749.0 , 22.731 , 0.0 , 0.0 , 0.0 , 0.0 , 

19.0 , 4075.8974359 , 4360.0 , 3856.41025641 , 4189.23076923 , 4172.82051282 , 4060.0 , 4580.51282051 , 4034.35897436 , 4467.17948718 , 4242.56410256 , 4372.82051282 , 4174.35897436 , 4230.76923077 , 4185.12820513 , 1696.0 , 1731.0 , 22.739 , 0.0 , 0.0 , 0.0 , 0.0 , 

20.0 , 4071.79487179 , 4374.87179487 , 3861.02564103 , 4187.17948718 , 4187.69230769 , 4035.8974359 , 4441.02564103 , 4029.23076923 , 4442.05128205 , 4237.94871795 , 4365.64102564 , 4169.74358974 , 4220.51282051 , 4181.53846154 , 1723.0 , 1721.0 , 22.747 , 0.0 , 0.0 , 0.0 , 0.0 , 

21.0 , 4124.1025641 , 4356.41025641 , 3873.33333333 , 4175.38461538 , 4190.76923077 , 4065.64102564 , 4442.05128205 , 4046.15384615 , 4445.12820513 , 4242.05128205 , 4349.23076923 , 4168.71794872 , 4208.71794872 , 4180.51282051 , 1720.0 , 1762.0 , 22.754 , 0.0 , 0.0 , 0.0 , 0.0 , 

22.0 , 4167.17948718 , 4338.46153846 , 3859.48717949 , 4171.79487179 , 4184.1025641 , 4050.76923077 , 4490.76923077 , 4038.97435897 , 4459.48717949 , 4240.51282051 , 4361.53846154 , 4171.79487179 , 4226.66666667 , 4184.1025641 , 1694.0 , 1786.0 , 22.762 , 0.0 , 0.0 , 0.0 , 0.0 , 

23.0 , 4166.66666667 , 4345.64102564 , 3858.97435897 , 4192.82051282 , 4183.58974359 , 4034.87179487 , 4442.05128205 , 4030.76923077 , 4443.07692308 , 4237.43589744 , 4363.07692308 , 4175.38461538 , 4231.79487179 , 4183.07692308 , 1672.0 , 1731.0 , 22.77 , 0.0 , 0.0 , 0.0 , 0.0 , 

24.0 , 4097.94871795 , 4324.61538462 , 3898.97435897 , 4212.82051282 , 4201.53846154 , 4049.74358974 , 4480.51282051 , 4040.51282051 , 4432.82051282 , 4238.97435897 , 4356.41025641 , 4180.0 , 4223.07692308 , 4190.76923077 , 1686.0 , 1749.0 , 22.778 , 0.0 , 0.0 , 0.0 , 0.0 , 

25.0 , 4084.61538462 , 4336.41025641 , 3861.02564103 , 4230.76923077 , 4213.84615385 , 4054.87179487 , 4499.48717949 , 4043.07692308 , 4443.58974359 , 4238.97435897 , 4367.17948718 , 4174.87179487 , 4224.61538462 , 4194.35897436 , 1679.0 , 1737.0 , 22.786 , 0.0 , 0.0 , 0.0 , 0.0 , 

26.0 , 4124.1025641 , 4362.05128205 , 3851.28205128 , 4218.46153846 , 4195.8974359 , 4045.64102564 , 4479.48717949 , 4031.28205128 , 4450.76923077 , 4242.05128205 , 4365.12820513 , 4175.8974359 , 4225.12820513 , 4197.43589744 , 1670.0 , 1742.0 , 22.794 , 0.0 , 0.0 , 0.0 , 0.0 , 

27.0 , 4110.76923077 , 4366.15384615 , 3902.56410256 , 4227.17948718 , 4203.58974359 , 4054.35897436 , 4456.92307692 , 4028.71794872 , 4446.15384615 , 4240.0 , 4358.46153846 , 4179.48717949 , 4229.23076923 , 4188.20512821 , 1674.0 , 1752.0 , 22.801 , 0.0 , 0.0 , 0.0 , 0.0 , 

28.0 , 4070.25641026 , 4372.30769231 , 3845.64102564 , 4252.30769231 , 4209.23076923 , 4054.35897436 , 4523.58974359 , 4034.35897436 , 4425.12820513 , 4236.92307692 , 4358.46153846 , 4178.46153846 , 4224.61538462 , 4169.74358974 , 1684.0 , 1747.0 , 22.809 , 0.0 , 0.0 , 0.0 , 0.0 , 

29.0 , 4088.71794872 , 4373.84615385 , 3824.61538462 , 4244.1025641 , 4169.23076923 , 4051.79487179 , 4529.74358974 , 4033.84615385 , 4420.51282051 , 4238.46153846 , 4355.38461538 , 4178.46153846 , 4212.82051282 , 4174.35897436 , 1688.0 , 1742.0 , 22.816 , 0.0 , 0.0 , 0.0 , 0.0 , 

30.0 , 4128.71794872 , 4371.79487179 , 3870.25641026 , 4245.12820513 , 4160.0 , 4050.76923077 , 4491.79487179 , 4034.35897436 , 4427.17948718 , 4237.43589744 , 4358.46153846 , 4178.97435897 , 4215.38461538 , 4178.97435897 , 1681.0 , 1743.0 , 22.825 , 0.0 , 0.0 , 0.0 , 0.0 , 

31.0 , 4121.53846154 , 4356.92307692 , 3869.74358974 , 4220.51282051 , 4188.71794872 , 4035.38461538 , 4504.1025641 , 4035.38461538 , 4441.53846154 , 4240.0 , 4370.25641026 , 4176.41025641 , 4236.41025641 , 4175.8974359 , 1676.0 , 1744.0 , 22.833 , 0.0 , 0.0 , 0.0 , 0.0 , 

32.0 , 4081.53846154 , 4347.69230769 , 3867.17948718 , 4179.48717949 , 4196.92307692 , 4063.07692308 , 4488.71794872 , 4028.71794872 , 4455.8974359 , 4238.97435897 , 4362.05128205 , 4163.07692308 , 4244.61538462 , 4175.8974359 , 1680.0 , 1746.0 , 22.841 , 0.0 , 0.0 , 0.0 , 0.0 , 

33.0 , 4081.02564103 , 4361.02564103 , 3856.41025641 , 4183.58974359 , 4185.12820513 , 4056.41025641 , 4493.84615385 , 4031.28205128 , 4448.71794872 , 4234.35897436 , 4357.94871795 , 4169.74358974 , 4230.25641026 , 4172.82051282 , 1682.0 , 1747.0 , 22.848 , 0.0 , 0.0 , 0.0 , 0.0 , 

34.0 , 4115.8974359 , 4363.58974359 , 3851.79487179 , 4192.82051282 , 4171.28205128 , 4033.33333333 , 4504.1025641 , 4034.35897436 , 4450.25641026 , 4236.41025641 , 4372.30769231 , 4179.48717949 , 4238.46153846 , 4171.28205128 , 1681.0 , 1744.0 , 22.856 , 0.0 , 0.0 , 0.0 , 0.0 , 

35.0 , 4100.51282051 , 4364.61538462 , 3865.12820513 , 4208.20512821 , 4183.58974359 , 4075.38461538 , 4496.41025641 , 4029.74358974 , 4451.79487179 , 4234.35897436 , 4360.51282051 , 4175.38461538 , 4243.58974359 , 4167.69230769 , 1680.0 , 1744.0 , 22.864 , 0.0 , 0.0 , 0.0 , 0.0 , 

36.0 , 4066.15384615 , 4365.12820513 , 3853.33333333 , 4208.71794872 , 4188.71794872 , 4084.1025641 , 4515.8974359 , 4032.82051282 , 4449.74358974 , 4233.84615385 , 4348.71794872 , 4176.41025641 , 4221.02564103 , 4167.69230769 , 1679.0 , 1745.0 , 22.872 , 0.0 , 0.0 , 0.0 , 0.0 , 

37.0 , 4089.74358974 , 4361.02564103 , 3853.33333333 , 4194.35897436 , 4179.48717949 , 4058.97435897 , 4516.41025641 , 4036.92307692 , 4433.84615385 , 4240.51282051 , 4349.74358974 , 4156.92307692 , 4217.43589744 , 4172.30769231 , 1680.0 , 1745.0 , 22.88 , 0.0 , 0.0 , 0.0 , 0.0 , 

38.0 , 4128.20512821 , 4360.0 , 3869.23076923 , 4200.51282051 , 4185.12820513 , 4027.69230769 , 4493.33333333 , 4036.41025641 , 4416.92307692 , 4240.51282051 , 4373.33333333 , 4165.64102564 , 4239.48717949 , 4175.38461538 , 1682.0 , 1744.0 , 22.887 , 0.0 , 0.0 , 0.0 , 0.0 , 

39.0 , 4107.69230769 , 4357.43589744 , 3858.97435897 , 4203.07692308 , 4183.58974359 , 4034.35897436 , 4502.05128205 , 4031.79487179 , 4437.94871795 , 4233.84615385 , 4373.84615385 , 4172.30769231 , 4246.66666667 , 4166.66666667 , 1680.0 , 1745.0 , 22.895 , 0.0 , 0.0 , 0.0 , 0.0 , 

40.0 , 4075.38461538 , 4363.58974359 , 3849.23076923 , 4207.69230769 , 4186.66666667 , 4087.69230769 , 4521.53846154 , 4035.38461538 , 4450.76923077 , 4234.87179487 , 4329.74358974 , 4150.76923077 , 4232.30769231 , 4167.17948718 , 1679.0 , 1745.0 , 22.903 , 0.0 , 0.0 , 0.0 , 0.0 , 

41.0 , 4104.1025641 , 4363.07692308 , 3852.30769231 , 4203.07692308 , 4182.05128205 , 4056.92307692 , 4503.07692308 , 4037.94871795 , 4457.94871795 , 4238.46153846 , 4348.71794872 , 4166.15384615 , 4248.20512821 , 4183.58974359 , 1681.0 , 1744.0 , 22.911 , 0.0 , 0.0 , 0.0 , 0.0 , 

42.0 , 4110.25641026 , 4355.8974359 , 3856.41025641 , 4191.28205128 , 4176.92307692 , 4042.56410256 , 4496.41025641 , 4031.28205128 , 4424.61538462 , 4236.92307692 , 4365.64102564 , 4171.28205128 , 4228.20512821 , 4173.84615385 , 1680.0 , 1744.0 , 22.918 , 0.0 , 0.0 , 0.0 , 0.0 , 

43.0 , 4067.69230769 , 4361.02564103 , 3856.92307692 , 4206.66666667 , 4191.28205128 , 4077.94871795 , 4510.25641026 , 4036.41025641 , 4379.48717949 , 4235.8974359 , 4349.74358974 , 4168.71794872 , 4195.8974359 , 4173.33333333 , 1682.0 , 1745.0 , 22.925 , 0.0 , 0.0 , 0.0 , 0.0 , 

44.0 , 4078.46153846 , 4361.53846154 , 3850.76923077 , 4205.12820513 , 4183.07692308 , 4069.74358974 , 4503.58974359 , 4038.97435897 , 4417.94871795 , 4234.87179487 , 4356.92307692 , 4164.61538462 , 4225.12820513 , 4171.79487179 , 1681.0 , 1745.0 , 22.934 , 0.0 , 0.0 , 0.0 , 0.0 , 

45.0 , 4113.33333333 , 4358.46153846 , 3850.25641026 , 4193.33333333 , 4177.43589744 , 4073.84615385 , 4499.48717949 , 4032.82051282 , 4446.66666667 , 4236.92307692 , 4338.46153846 , 4146.66666667 , 4234.87179487 , 4159.48717949 , 1679.0 , 1745.0 , 22.942 , 0.0 , 0.0 , 0.0 , 0.0 , 

46.0 , 4110.76923077 , 4352.30769231 , 3857.43589744 , 4194.87179487 , 4186.15384615 , 4061.02564103 , 4492.82051282 , 4033.33333333 , 4431.28205128 , 4236.92307692 , 4341.02564103 , 4163.07692308 , 4240.51282051 , 4188.20512821 , 1681.0 , 1744.0 , 22.95 , 0.0 , 0.0 , 0.0 , 0.0 , 

47.0 , 4096.41025641 , 4353.84615385 , 3860.0 , 4198.46153846 , 4183.07692308 , 4041.53846154 , 4492.30769231 , 4031.79487179 , 4414.87179487 , 4233.84615385 , 4367.69230769 , 4158.46153846 , 4241.53846154 , 4202.05128205 , 1680.0 , 1745.0 , 22.958 , 0.0 , 0.0 , 0.0 , 0.0 , 

48.0 , 4090.76923077 , 4365.12820513 , 3850.76923077 , 4205.64102564 , 4185.64102564 , 4059.48717949 , 4506.15384615 , 4036.41025641 , 4396.92307692 , 4236.92307692 , 4378.97435897 , 4145.12820513 , 4234.87179487 , 4182.05128205 , 1681.0 , 1746.0 , 22.966 , 0.0 , 0.0 , 0.0 , 0.0 , 

49.0 , 4098.97435897 , 4357.43589744 , 3843.07692308 , 4197.43589744 , 4177.94871795 , 4055.8974359 , 4498.97435897 , 4040.0 , 4417.94871795 , 4238.46153846 , 4376.92307692 , 4162.05128205 , 4250.25641026 , 4159.48717949 , 1679.0 , 1744.0 , 22.973 , 0.0 , 0.0 , 0.0 , 0.0 , 

50.0 , 4093.84615385 , 4352.82051282 , 3855.8974359 , 4196.92307692 , 4181.53846154 , 4053.33333333 , 4494.35897436 , 4033.33333333 , 4410.25641026 , 4235.38461538 , 4325.12820513 , 4162.05128205 , 4211.28205128 , 4163.07692308 , 1680.0 , 1745.0 , 22.981 , 0.0 , 0.0 , 0.0 , 0.0 , 

51.0 , 4074.87179487 , 4362.05128205 , 3855.8974359 , 4208.71794872 , 4193.33333333 , 4070.76923077 , 4507.69230769 , 4035.8974359 , 4400.0 , 4233.33333333 , 4309.23076923 , 4165.12820513 , 4192.82051282 , 4203.58974359 , 1680.0 , 1744.0 , 22.99 , 0.0 , 0.0 , 0.0 , 0.0 , 

52.0 , 4088.20512821 , 4363.58974359 , 3840.0 , 4201.53846154 , 4176.92307692 , 4074.35897436 , 4510.76923077 , 4038.46153846 , 4404.1025641 , 4234.35897436 , 4347.17948718 , 4154.35897436 , 4213.84615385 , 4201.53846154 , 1681.0 , 1745.0 , 22.997 , 0.0 , 0.0 , 0.0 , 0.0 , 

53.0 , 4110.76923077 , 4358.97435897 , 3853.84615385 , 4199.48717949 , 4177.94871795 , 4062.05128205 , 4499.48717949 , 4036.92307692 , 4373.33333333 , 4237.94871795 , 4358.97435897 , 4144.61538462 , 4222.56410256 , 4179.48717949 , 1680.0 , 1745.0 , 23.005 , 0.0 , 0.0 , 0.0 , 0.0 , 

54.0 , 4114.35897436 , 4353.84615385 , 3860.51282051 , 4195.8974359 , 4182.56410256 , 4037.94871795 , 4489.23076923 , 4040.51282051 , 4389.74358974 , 4237.94871795 , 4361.53846154 , 4161.02564103 , 4246.15384615 , 4175.38461538 , 1680.0 , 1745.0 , 23.013 , 0.0 , 0.0 , 0.0 , 0.0 , 

55.0 , 4096.41025641 , 4355.38461538 , 3841.02564103 , 4192.30769231 , 4180.0 , 4030.76923077 , 4502.05128205 , 4037.43589744 , 4419.48717949 , 4236.41025641 , 4353.84615385 , 4153.84615385 , 4230.25641026 , 4169.23076923 , 1681.0 , 1744.0 , 23.02 , 0.0 , 0.0 , 0.0 , 0.0 , 

56.0 , 4086.66666667 , 4352.82051282 , 3844.1025641 , 4200.51282051 , 4186.66666667 , 4036.41025641 , 4494.87179487 , 4036.41025641 , 4398.46153846 , 4237.94871795 , 4353.33333333 , 4153.84615385 , 4214.35897436 , 4207.69230769 , 1680.0 , 1746.0 , 23.028 , 0.0 , 0.0 , 0.0 , 0.0 , 

57.0 , 4104.1025641 , 4354.35897436 , 3853.33333333 , 4193.33333333 , 4178.46153846 , 4046.66666667 , 4498.46153846 , 4039.48717949 , 4395.38461538 , 4236.92307692 , 4364.61538462 , 4168.71794872 , 4240.51282051 , 4219.48717949 , 1681.0 , 1745.0 , 23.036 , 0.0 , 0.0 , 0.0 , 0.0 , 

58.0 , 4104.1025641 , 4365.64102564 , 3850.25641026 , 4196.92307692 , 4183.58974359 , 4046.15384615 , 4515.38461538 , 4040.51282051 , 4394.35897436 , 4232.30769231 , 4352.82051282 , 4158.97435897 , 4242.56410256 , 4185.12820513 , 1679.0 , 1744.0 , 23.043 , 0.0 , 0.0 , 0.0 , 0.0 , 

59.0 , 4091.28205128 , 4355.38461538 , 3838.97435897 , 4198.46153846 , 4185.12820513 , 4010.76923077 , 4488.20512821 , 4046.15384615 , 4392.82051282 , 4235.8974359 , 4359.48717949 , 4158.97435897 , 4247.69230769 , 4184.61538462 , 1680.0 , 1745.0 , 23.052 , 0.0 , 0.0 , 0.0 , 0.0 , 

60.0 , 4089.74358974 , 4352.30769231 , 3841.53846154 , 4190.76923077 , 4182.05128205 , 4050.76923077 , 4498.46153846 , 4034.35897436 , 4391.79487179 , 4235.8974359 , 4368.71794872 , 4167.69230769 , 4233.84615385 , 4185.64102564 , 1680.0 , 1744.0 , 23.059 , 0.0 , 0.0 , 0.0 , 0.0 , 

61.0 , 4100.51282051 , 4361.53846154 , 3855.38461538 , 4198.46153846 , 4189.23076923 , 4074.35897436 , 4508.71794872 , 4036.41025641 , 4371.28205128 , 4234.87179487 , 4349.74358974 , 4166.15384615 , 4210.25641026 , 4198.97435897 , 1680.0 , 1745.0 , 23.066 , 0.0 , 0.0 , 0.0 , 0.0 , 

62.0 , 4094.35897436 , 4352.30769231 , 3841.53846154 , 4196.92307692 , 4176.92307692 , 4029.23076923 , 4483.58974359 , 4050.25641026 , 4391.79487179 , 4242.05128205 , 4362.05128205 , 4169.74358974 , 4236.41025641 , 4204.61538462 , 1681.0 , 1744.0 , 23.075 , 0.0 , 0.0 , 0.0 , 0.0 , 

63.0 , 4079.48717949 , 4354.35897436 , 3838.46153846 , 4200.51282051 , 4184.61538462 , 4054.87179487 , 4506.66666667 , 4036.41025641 , 4409.23076923 , 4236.92307692 , 4367.17948718 , 4167.17948718 , 4238.97435897 , 4191.28205128 , 1680.0 , 1745.0 , 23.083 , 0.0 , 0.0 , 0.0 , 0.0 , 

64.0 , 4101.02564103 , 4360.51282051 , 3846.66666667 , 4202.05128205 , 4190.76923077 , 4056.41025641 , 4501.02564103 , 4031.79487179 , 4371.28205128 , 4231.28205128 , 4342.05128205 , 4165.64102564 , 4209.23076923 , 4197.94871795 , 1680.0 , 1745.0 , 23.091 , 0.0 , 0.0 , 0.0 , 0.0 , 

65.0 , 4096.41025641 , 4353.84615385 , 3842.56410256 , 4194.35897436 , 4175.8974359 , 4053.84615385 , 4478.97435897 , 4038.46153846 , 4373.84615385 , 4239.48717949 , 4352.30769231 , 4172.82051282 , 4222.05128205 , 4193.33333333 , 1681.0 , 1745.0 , 23.099 , 0.0 , 0.0 , 0.0 , 0.0 , 

66.0 , 4079.48717949 , 4357.43589744 , 3840.0 , 4198.46153846 , 4186.66666667 , 4068.20512821 , 4515.38461538 , 4047.17948718 , 4397.94871795 , 4241.53846154 , 4362.56410256 , 4169.23076923 , 4235.38461538 , 4191.28205128 , 1680.0 , 1744.0 , 23.106 , 0.0 , 0.0 , 0.0 , 0.0 , 

67.0 , 4103.58974359 , 4356.92307692 , 3844.61538462 , 4198.97435897 , 4185.64102564 , 4050.76923077 , 4494.35897436 , 4046.15384615 , 4391.28205128 , 4236.92307692 , 4352.82051282 , 4169.23076923 , 4228.20512821 , 4197.94871795 , 1679.0 , 1745.0 , 23.114 , 0.0 , 0.0 , 0.0 , 0.0 , 

68.0 , 4109.74358974 , 4354.87179487 , 3853.84615385 , 4199.48717949 , 4182.56410256 , 4074.87179487 , 4480.0 , 4033.33333333 , 4382.05128205 , 4233.84615385 , 4354.35897436 , 4173.33333333 , 4225.12820513 , 4185.64102564 , 1680.0 , 1745.0 , 23.122 , 0.0 , 0.0 , 0.0 , 0.0 , 

69.0 , 4095.8974359 , 4357.43589744 , 3839.48717949 , 4196.41025641 , 4186.15384615 , 4078.97435897 , 4513.84615385 , 4041.53846154 , 4387.69230769 , 4235.8974359 , 4359.48717949 , 4177.94871795 , 4232.82051282 , 4190.25641026 , 1680.0 , 1745.0 , 23.13 , 0.0 , 0.0 , 0.0 , 0.0 , 

70.0 , 4078.97435897 , 4356.41025641 , 3836.92307692 , 4197.94871795 , 4184.1025641 , 4036.41025641 , 4481.53846154 , 4036.92307692 , 4384.1025641 , 4233.84615385 , 4358.46153846 , 4182.56410256 , 4234.35897436 , 4195.8974359 , 1680.0 , 1745.0 , 23.138 , 0.0 , 0.0 , 0.0 , 0.0 , 

71.0 , 4078.46153846 , 4358.97435897 , 3846.15384615 , 4204.1025641 , 4188.71794872 , 4017.43589744 , 4503.07692308 , 4036.92307692 , 4378.97435897 , 4230.76923077 , 4353.33333333 , 4172.82051282 , 4223.58974359 , 4185.64102564 , 1680.0 , 1744.0 , 23.144 , 0.0 , 0.0 , 0.0 , 0.0 , 

72.0 , 4111.79487179 , 4354.87179487 , 3844.1025641 , 4194.87179487 , 4180.51282051 , 4039.48717949 , 4505.12820513 , 4043.07692308 , 4407.17948718 , 4237.94871795 , 4359.48717949 , 4173.84615385 , 4232.82051282 , 4187.17948718 , 1680.0 , 1745.0 , 23.153 , 0.0 , 0.0 , 0.0 , 0.0 , 

73.0 , 4118.97435897 , 4356.41025641 , 3854.87179487 , 4196.92307692 , 4181.02564103 , 4090.25641026 , 4475.38461538 , 4025.64102564 , 4408.20512821 , 4234.35897436 , 4366.15384615 , 4179.48717949 , 4249.74358974 , 4184.1025641 , 1681.0 , 1744.0 , 23.16 , 0.0 , 0.0 , 0.0 , 0.0 , 

74.0 , 4088.20512821 , 4363.07692308 , 3845.12820513 , 4202.05128205 , 4189.74358974 , 4073.84615385 , 4516.41025641 , 4027.17948718 , 4376.92307692 , 4229.74358974 , 4367.69230769 , 4181.53846154 , 4236.92307692 , 4178.97435897 , 1680.0 , 1745.0 , 23.168 , 0.0 , 0.0 , 0.0 , 0.0 , 

75.0 , 4073.33333333 , 4353.84615385 , 3841.02564103 , 4198.97435897 , 4181.02564103 , 4043.58974359 , 4481.02564103 , 4032.82051282 , 4381.53846154 , 4237.43589744 , 4359.48717949 , 4187.17948718 , 4232.82051282 , 4188.71794872 , 1681.0 , 1745.0 , 23.177 , 0.0 , 0.0 , 0.0 , 0.0 , 

76.0 , 4089.23076923 , 4356.41025641 , 3851.79487179 , 4200.0 , 4184.61538462 , 4074.35897436 , 4495.38461538 , 4029.74358974 , 4392.82051282 , 4234.87179487 , 4341.53846154 , 4178.46153846 , 4238.46153846 , 4188.20512821 , 1680.0 , 1745.0 , 23.185 , 0.0 , 0.0 , 0.0 , 0.0 , 

77.0 , 4108.20512821 , 4360.0 , 3847.69230769 , 4197.43589744 , 4185.64102564 , 4067.17948718 , 4514.35897436 , 4029.23076923 , 4391.28205128 , 4230.25641026 , 4353.33333333 , 4176.92307692 , 4236.41025641 , 4181.53846154 , 1680.0 , 1745.0 , 23.192 , 0.0 , 0.0 , 0.0 , 0.0 , 

78.0 , 4091.28205128 , 4353.84615385 , 3850.25641026 , 4198.46153846 , 4184.1025641 , 4049.23076923 , 4469.74358974 , 4027.69230769 , 4386.15384615 , 4233.33333333 , 4363.07692308 , 4185.64102564 , 4242.56410256 , 4177.43589744 , 1680.0 , 1745.0 , 23.2 , 0.0 , 0.0 , 0.0 , 0.0 , 

79.0 , 4079.48717949 , 4356.92307692 , 3848.20512821 , 4200.0 , 4186.66666667 , 4065.12820513 , 4513.33333333 , 4034.35897436 , 4387.69230769 , 4234.35897436 , 4369.74358974 , 4189.23076923 , 4242.05128205 , 4173.84615385 , 1681.0 , 1745.0 , 23.208 , 0.0 , 0.0 , 0.0 , 0.0 , 

80.0 , 4102.56410256 , 4358.97435897 , 3854.87179487 , 4200.0 , 4185.64102564 , 4063.58974359 , 4491.79487179 , 4029.23076923 , 4388.71794872 , 4232.82051282 , 4362.56410256 , 4177.94871795 , 4237.43589744 , 4175.38461538 , 1679.0 , 1745.0 , 23.216 , 0.0 , 0.0 , 0.0 , 0.0 , 

81.0 , 4107.17948718 , 4361.53846154 , 3855.38461538 , 4201.53846154 , 4187.69230769 , 4054.35897436 , 4484.61538462 , 4029.23076923 , 4389.74358974 , 4232.82051282 , 4326.66666667 , 4164.61538462 , 4243.07692308 , 4171.79487179 , 1681.0 , 1745.0 , 23.223 , 0.0 , 0.0 , 0.0 , 0.0 , 

82.0 , 4094.87179487 , 4358.97435897 , 3843.07692308 , 4193.84615385 , 4182.56410256 , 4049.23076923 , 4513.84615385 , 4031.28205128 , 4392.82051282 , 4231.79487179 , 4345.12820513 , 4175.8974359 , 4254.87179487 , 4170.76923077 , 1681.0 , 1744.0 , 23.23 , 0.0 , 0.0 , 0.0 , 0.0 , 

83.0 , 4083.58974359 , 4355.38461538 , 3853.33333333 , 4198.46153846 , 4186.66666667 , 4046.66666667 , 4476.92307692 , 4025.64102564 , 4393.33333333 , 4229.23076923 , 4364.61538462 , 4182.05128205 , 4235.8974359 , 4173.33333333 , 1680.0 , 1745.0 , 23.239 , 0.0 , 0.0 , 0.0 , 0.0 , 

84.0 , 4088.71794872 , 4365.12820513 , 3852.82051282 , 4205.12820513 , 4190.76923077 , 4061.53846154 , 4507.17948718 , 4033.84615385 , 4417.94871795 , 4232.30769231 , 4377.43589744 , 4182.56410256 , 4245.12820513 , 4166.66666667 , 1680.0 , 1745.0 , 23.247 , 0.0 , 0.0 , 0.0 , 0.0 , 

85.0 , 4109.23076923 , 4359.48717949 , 3851.28205128 , 4198.97435897 , 4180.0 , 4061.02564103 , 4496.41025641 , 4029.74358974 , 4421.53846154 , 4231.79487179 , 4376.92307692 , 4169.23076923 , 4259.48717949 , 4154.35897436 , 1680.0 , 1745.0 , 23.255 , 0.0 , 0.0 , 0.0 , 0.0 , 

86.0 , 4111.28205128 , 4351.28205128 , 3861.53846154 , 4196.92307692 , 4180.0 , 4041.02564103 , 4469.74358974 , 4025.64102564 , 4385.64102564 , 4228.71794872 , 4306.66666667 , 4152.82051282 , 4206.66666667 , 4163.58974359 , 1680.0 , 1745.0 , 23.263 , 0.0 , 0.0 , 0.0 , 0.0 , 

87.0 , 4104.1025641 , 4357.43589744 , 3854.87179487 , 4198.97435897 , 4181.02564103 , 4028.71794872 , 4501.53846154 , 4030.76923077 , 4372.30769231 , 4229.74358974 , 4290.76923077 , 4173.84615385 , 4199.48717949 , 4173.84615385 , 1679.0 , 1745.0 , 23.271 , 0.0 , 0.0 , 0.0 , 0.0 , 

88.0 , 4081.02564103 , 4356.92307692 , 3848.71794872 , 4202.56410256 , 4186.15384615 , 4044.61538462 , 4486.66666667 , 4026.66666667 , 4406.15384615 , 4229.74358974 , 4373.84615385 , 4175.38461538 , 4262.05128205 , 4144.1025641 , 1680.0 , 1745.0 , 23.278 , 0.0 , 0.0 , 0.0 , 0.0 , 

89.0 , 4077.94871795 , 4356.92307692 , 3849.23076923 , 4200.51282051 , 4187.69230769 , 4054.35897436 , 4488.20512821 , 4033.33333333 , 4458.46153846 , 4230.76923077 , 4432.82051282 , 4167.17948718 , 4288.71794872 , 4171.79487179 , 1680.0 , 1745.0 , 23.286 , 0.0 , 0.0 , 0.0 , 0.0 , 

90.0 , 4107.17948718 , 4355.8974359 , 3857.94871795 , 4195.8974359 , 4181.02564103 , 4049.23076923 , 4490.25641026 , 4034.87179487 , 4449.74358974 , 4232.82051282 , 4384.61538462 , 4171.79487179 , 4256.92307692 , 4215.38461538 , 1680.0 , 1744.0 , 23.294 , 0.0 , 0.0 , 0.0 , 0.0 , 

91.0 , 4102.05128205 , 4359.48717949 , 3866.15384615 , 4205.64102564 , 4186.66666667 , 4072.82051282 , 4485.64102564 , 4029.74358974 , 4370.76923077 , 4233.84615385 , 4281.02564103 , 4164.1025641 , 4185.64102564 , 4171.79487179 , 1680.0 , 1746.0 , 23.302 , 0.0 , 0.0 , 0.0 , 0.0 , 

92.0 , 4087.17948718 , 4363.07692308 , 3853.84615385 , 4205.12820513 , 4186.66666667 , 4075.38461538 , 4496.41025641 , 4033.33333333 , 4354.87179487 , 4234.87179487 , 4291.79487179 , 4177.43589744 , 4188.20512821 , 4143.58974359 , 1680.0 , 1744.0 , 23.31 , 0.0 , 0.0 , 0.0 , 0.0 , 

93.0 , 4102.56410256 , 4356.92307692 , 3854.87179487 , 4198.46153846 , 4182.05128205 , 4049.23076923 , 4482.05128205 , 4032.30769231 , 4415.8974359 , 4234.87179487 , 4365.12820513 , 4163.07692308 , 4243.07692308 , 4155.8974359 , 1680.0 , 1745.0 , 23.317 , 0.0 , 0.0 , 0.0 , 0.0 , 

94.0 , 4110.76923077 , 4359.48717949 , 3864.61538462 , 4200.0 , 4183.07692308 , 4050.25641026 , 4483.07692308 , 4033.33333333 , 4445.12820513 , 4236.41025641 , 4375.38461538 , 4138.46153846 , 4249.23076923 , 4178.46153846 , 1681.0 , 1744.0 , 23.324 , 0.0 , 0.0 , 0.0 , 0.0 , 

95.0 , 4091.28205128 , 4357.43589744 , 3856.41025641 , 4199.48717949 , 4181.53846154 , 4053.84615385 , 4487.69230769 , 4032.30769231 , 4425.64102564 , 4234.87179487 , 4358.46153846 , 4161.02564103 , 4237.94871795 , 4182.56410256 , 1680.0 , 1744.0 , 23.333 , 0.0 , 0.0 , 0.0 , 0.0 , 

96.0 , 4081.02564103 , 4354.87179487 , 3857.94871795 , 4203.58974359 , 4187.69230769 , 4055.38461538 , 4486.66666667 , 4029.74358974 , 4396.92307692 , 4233.84615385 , 4334.87179487 , 4171.28205128 , 4227.69230769 , 4169.23076923 , 1680.0 , 1744.0 , 23.341 , 0.0 , 0.0 , 0.0 , 0.0 , 

97.0 , 4101.53846154 , 4362.05128205 , 3860.51282051 , 4203.58974359 , 4184.1025641 , 4031.28205128 , 4489.74358974 , 4036.92307692 , 4409.23076923 , 4238.46153846 , 4337.94871795 , 4175.8974359 , 4246.15384615 , 4190.76923077 , 1680.0 , 1745.0 , 23.349 , 0.0 , 0.0 , 0.0 , 0.0 , 

98.0 , 4104.61538462 , 4356.41025641 , 3859.48717949 , 4200.0 , 4179.48717949 , 4053.33333333 , 4483.58974359 , 4038.97435897 , 4426.66666667 , 4237.43589744 , 4353.84615385 , 4157.43589744 , 4242.05128205 , 4189.23076923 , 1681.0 , 1745.0 , 23.357 , 0.0 , 0.0 , 0.0 , 0.0 , 

99.0 , 4091.28205128 , 4356.92307692 , 3858.97435897 , 4204.1025641 , 4185.64102564 , 4116.92307692 , 4487.17948718 , 4036.41025641 , 4404.61538462 , 4234.87179487 , 4337.43589744 , 4127.69230769 , 4182.05128205 , 4165.64102564 , 1680.0 , 1745.0 , 23.364 , 0.0 , 0.0 , 0.0 , 0.0 , 

100.0 , 4095.8974359 , 4357.94871795 , 3855.38461538 , 4200.51282051 , 4182.56410256 , 4085.64102564 , 4483.58974359 , 4037.43589744 , 4409.74358974 , 4236.41025641 , 4341.53846154 , 4152.82051282 , 4195.38461538 , 4174.35897436 , 1681.0 , 1745.0 , 23.372 , 0.0 , 0.0 , 0.0 , 0.0 , 

101.0 , 4096.92307692 , 4355.8974359 , 3864.1025641 , 4201.02564103 , 4184.1025641 , 4027.69230769 , 4482.05128205 , 4032.30769231 , 4417.94871795 , 4234.35897436 , 4352.30769231 , 4169.74358974 , 4261.02564103 , 4174.35897436 , 1681.0 , 1745.0 , 23.38 , 0.0 , 0.0 , 0.0 , 0.0 , 

102.0 , 4087.17948718 , 4360.0 , 3856.92307692 , 4202.05128205 , 4185.64102564 , 4024.61538462 , 4490.76923077 , 4033.33333333 , 4415.38461538 , 4234.87179487 , 4334.87179487 , 4167.17948718 , 4269.74358974 , 4182.05128205 , 1680.0 , 1745.0 , 23.388 , 0.0 , 0.0 , 0.0 , 0.0 , 

103.0 , 4096.92307692 , 4354.87179487 , 3852.30769231 , 4196.92307692 , 4181.53846154 , 4067.69230769 , 4486.15384615 , 4043.07692308 , 4422.56410256 , 4238.46153846 , 4340.0 , 4154.35897436 , 4221.53846154 , 4191.28205128 , 1681.0 , 1744.0 , 23.396 , 0.0 , 0.0 , 0.0 , 0.0 , 

104.0 , 4114.87179487 , 4359.48717949 , 3868.20512821 , 4198.97435897 , 4185.64102564 , 4129.23076923 , 4486.66666667 , 4041.02564103 , 4396.41025641 , 4237.94871795 , 4353.84615385 , 4135.8974359 , 4181.53846154 , 4181.53846154 , 1680.0 , 1745.0 , 23.404 , 0.0 , 0.0 , 0.0 , 0.0 , 

105.0 , 4104.1025641 , 4361.02564103 , 3858.46153846 , 4197.43589744 , 4182.56410256 , 4103.58974359 , 4487.69230769 , 4035.8974359 , 4390.25641026 , 4236.92307692 , 4348.71794872 , 4153.33333333 , 4218.46153846 , 4177.43589744 , 1681.0 , 1745.0 , 23.41 , 0.0 , 0.0 , 0.0 , 0.0 , 

106.0 , 4069.74358974 , 4350.25641026 , 3844.1025641 , 4196.92307692 , 4180.51282051 , 4018.46153846 , 4487.69230769 , 4035.8974359 , 4416.92307692 , 4236.92307692 , 4348.71794872 , 4163.58974359 , 4236.92307692 , 4178.97435897 , 1680.0 , 1744.0 , 23.418 , 0.0 , 0.0 , 0.0 , 0.0 , 

107.0 , 4074.87179487 , 4354.87179487 , 3853.33333333 , 4200.51282051 , 4182.56410256 , 3990.76923077 , 4490.25641026 , 4040.51282051 , 4436.41025641 , 4237.94871795 , 4352.82051282 , 4157.43589744 , 4215.38461538 , 4199.48717949 , 1680.0 , 1745.0 , 23.427 , 0.0 , 0.0 , 0.0 , 0.0 , 

108.0 , 4117.43589744 , 4360.0 , 3867.17948718 , 4200.0 , 4180.51282051 , 4062.56410256 , 4485.64102564 , 4042.56410256 , 4437.94871795 , 4238.97435897 , 4351.79487179 , 4163.58974359 , 4224.61538462 , 4200.51282051 , 1680.0 , 1744.0 , 23.434 , 0.0 , 0.0 , 0.0 , 0.0 , 

109.0 , 4122.56410256 , 4362.56410256 , 3867.17948718 , 4203.07692308 , 4185.64102564 , 4133.33333333 , 4484.61538462 , 4035.8974359 , 4403.58974359 , 4233.84615385 , 4346.15384615 , 4160.0 , 4227.69230769 , 4175.8974359 , 1681.0 , 1744.0 , 23.442 , 0.0 , 0.0 , 0.0 , 0.0 , 

110.0 , 4087.17948718 , 4356.41025641 , 3846.15384615 , 4195.38461538 , 4181.53846154 , 4085.64102564 , 4478.97435897 , 4044.61538462 , 4408.71794872 , 4235.8974359 , 4348.71794872 , 4159.48717949 , 4226.15384615 , 4188.71794872 , 1680.0 , 1744.0 , 23.449 , 0.0 , 0.0 , 0.0 , 0.0 , 

111.0 , 4069.23076923 , 4350.25641026 , 3851.79487179 , 4194.35897436 , 4182.05128205 , 4030.76923077 , 4483.58974359 , 4046.66666667 , 4437.94871795 , 4238.97435897 , 4361.02564103 , 4167.17948718 , 4232.82051282 , 4206.15384615 , 1680.0 , 1745.0 , 23.458 , 0.0 , 0.0 , 0.0 , 0.0 , 

112.0 , 4088.71794872 , 4364.61538462 , 3867.69230769 , 4204.61538462 , 4188.71794872 , 4043.07692308 , 4495.8974359 , 4034.35897436 , 4416.41025641 , 4237.94871795 , 4348.71794872 , 4162.56410256 , 4218.46153846 , 4195.8974359 , 1681.0 , 1744.0 , 23.465 , 0.0 , 0.0 , 0.0 , 0.0 , 

113.0 , 4108.71794872 , 4362.56410256 , 3853.33333333 , 4200.0 , 4183.07692308 , 4070.25641026 , 4487.69230769 , 4041.53846154 , 4409.74358974 , 4240.51282051 , 4338.46153846 , 4158.97435897 , 4207.69230769 , 4187.69230769 , 1680.0 , 1745.0 , 23.474 , 0.0 , 0.0 , 0.0 , 0.0 , 

114.0 , 4096.41025641 , 4352.30769231 , 3854.87179487 , 4198.46153846 , 4183.07692308 , 4101.53846154 , 4486.15384615 , 4040.0 , 4431.79487179 , 4238.46153846 , 4352.30769231 , 4167.69230769 , 4225.12820513 , 4184.61538462 , 1681.0 , 1744.0 , 23.481 , 0.0 , 0.0 , 0.0 , 0.0 , 

115.0 , 4095.8974359 , 4360.51282051 , 3865.12820513 , 4201.02564103 , 4181.02564103 , 4077.94871795 , 4487.17948718 , 4033.84615385 , 4421.53846154 , 4236.41025641 , 4350.76923077 , 4174.35897436 , 4226.66666667 , 4187.17948718 , 1679.0 , 1745.0 , 23.49 , 0.0 , 0.0 , 0.0 , 0.0 , 

116.0 , 4099.48717949 , 4358.46153846 , 3858.97435897 , 4196.92307692 , 4180.51282051 , 4053.84615385 , 4483.58974359 , 4042.56410256 , 4415.38461538 , 4238.46153846 , 4348.20512821 , 4175.8974359 , 4220.0 , 4183.58974359 , 1681.0 , 1745.0 , 23.496 , 0.0 , 0.0 , 0.0 , 0.0 , 

117.0 , 4077.43589744 , 4355.38461538 , 3855.8974359 , 4201.02564103 , 4188.20512821 , 4078.46153846 , 4489.23076923 , 4042.56410256 , 4424.61538462 , 4237.94871795 , 4352.30769231 , 4165.64102564 , 4221.53846154 , 4183.58974359 , 1680.0 , 1744.0 , 23.505 , 0.0 , 0.0 , 0.0 , 0.0 , 

118.0 , 4085.12820513 , 4356.41025641 , 3852.30769231 , 4200.51282051 , 4184.61538462 , 4084.61538462 , 4485.64102564 , 4038.46153846 , 4424.61538462 , 4238.46153846 , 4347.69230769 , 4165.12820513 , 4216.41025641 , 4192.30769231 , 1681.0 , 1745.0 , 23.512 , 0.0 , 0.0 , 0.0 , 0.0 , 

119.0 , 4110.25641026 , 4353.33333333 , 3858.97435897 , 4196.41025641 , 4181.53846154 , 4065.64102564 , 4483.07692308 , 4040.51282051 , 4428.20512821 , 4238.46153846 , 4352.82051282 , 4173.33333333 , 4223.58974359 , 4189.23076923 , 1680.0 , 1745.0 , 23.521 , 0.0 , 0.0 , 0.0 , 0.0 , 

120.0 , 4107.17948718 , 4355.38461538 , 3857.94871795 , 4194.35897436 , 4183.07692308 , 4050.76923077 , 4483.07692308 , 4043.58974359 , 4435.38461538 , 4239.48717949 , 4359.48717949 , 4173.33333333 , 4239.48717949 , 4188.71794872 , 1681.0 , 1745.0 , 23.529 , 0.0 , 0.0 , 0.0 , 0.0 , 

121.0 , 4086.66666667 , 4361.02564103 , 3848.20512821 , 4197.43589744 , 4184.61538462 , 4051.79487179 , 4484.1025641 , 4037.43589744 , 4437.94871795 , 4243.07692308 , 4359.48717949 , 4177.43589744 , 4242.56410256 , 4195.8974359 , 1680.0 , 1745.0 , 23.535 , 0.0 , 0.0 , 0.0 , 0.0 , 

122.0 , 4068.71794872 , 4360.0 , 3854.87179487 , 4204.1025641 , 4189.23076923 , 4069.74358974 , 4491.28205128 , 4029.23076923 , 4429.23076923 , 4237.94871795 , 4357.43589744 , 4174.87179487 , 4227.69230769 , 4188.20512821 , 1680.0 , 1745.0 , 23.543 , 0.0 , 0.0 , 0.0 , 0.0 , 

123.0 , 4096.41025641 , 4356.41025641 , 3861.02564103 , 4197.94871795 , 4183.07692308 , 4075.8974359 , 4486.66666667 , 4032.30769231 , 4423.58974359 , 4237.94871795 , 4355.8974359 , 4173.84615385 , 4219.48717949 , 4183.58974359 , 1680.0 , 1744.0 , 23.552 , 0.0 , 0.0 , 0.0 , 0.0 , 

124.0 , 4118.97435897 , 4356.41025641 , 3865.12820513 , 4196.92307692 , 4182.56410256 , 4057.94871795 , 4485.12820513 , 4034.87179487 , 4433.33333333 , 4240.51282051 , 4351.79487179 , 4177.94871795 , 4230.25641026 , 4180.51282051 , 1680.0 , 1745.0 , 23.56 , 0.0 , 0.0 , 0.0 , 0.0 , 

125.0 , 4094.35897436 , 4356.41025641 , 3860.51282051 , 4200.51282051 , 4185.12820513 , 4052.30769231 , 4488.20512821 , 4032.30769231 , 4428.20512821 , 4234.87179487 , 4358.97435897 , 4174.35897436 , 4230.76923077 , 4173.33333333 , 1681.0 , 1744.0 , 23.568 , 0.0 , 0.0 , 0.0 , 0.0 , 

126.0 , 4083.58974359 , 4358.46153846 , 3848.20512821 , 4196.92307692 , 4180.51282051 , 4058.97435897 , 4484.61538462 , 4029.74358974 , 4421.02564103 , 4236.92307692 , 4360.51282051 , 4181.53846154 , 4229.23076923 , 4183.07692308 , 1679.0 , 1744.0 , 23.576 , 0.0 , 0.0 , 0.0 , 0.0 , 

127.0 , 4071.79487179 , 4357.94871795 , 3855.8974359 , 4201.02564103 , 4188.71794872 , 4067.17948718 , 4490.76923077 , 4030.76923077 , 4421.53846154 , 4236.41025641 , 4342.56410256 , 4186.66666667 , 4231.28205128 , 4191.79487179 , 1681.0 , 1744.0 , 23.583 , 0.0 , 0.0 , 0.0 , 0.0 , 

128.0 , 4089.23076923 , 4356.92307692 , 3862.56410256 , 4198.97435897 , 4187.69230769 , 4073.33333333 , 4490.25641026 , 4032.30769231 , 4423.58974359 , 4232.82051282 , 4348.20512821 , 4183.07692308 , 4222.56410256 , 4181.53846154 , 1680.0 , 1744.0 , 23.591 , 0.0 , 0.0 , 0.0 , 0.0 , 

0.0 , 4133.84615385 , 4360.0 , 3862.05128205 , 4193.84615385 , 4176.41025641 , 4052.82051282 , 4481.02564103 , 4032.82051282 , 4428.71794872 , 4236.41025641 , 4353.84615385 , 4182.56410256 , 4234.87179487 , 4170.25641026 , 1680.0 , 1745.0 , 23.599 , 0.0 , 0.0 , 0.0 , 0.0 , 

1.0 , 4095.38461538 , 4352.82051282 , 3859.48717949 , 4197.94871795 , 4182.56410256 , 4038.46153846 , 4482.56410256 , 4032.82051282 , 4415.8974359 , 4237.94871795 , 4335.38461538 , 4182.05128205 , 4252.82051282 , 4167.69230769 , 1681.0 , 1745.0 , 23.606 , 0.0 , 0.0 , 0.0 , 0.0 , 

2.0 , 4063.58974359 , 4353.84615385 , 3852.82051282 , 4198.46153846 , 4189.23076923 , 4050.25641026 , 4485.64102564 , 4027.17948718 , 4411.28205128 , 4233.84615385 , 4344.1025641 , 4179.48717949 , 4246.66666667 , 4183.07692308 , 1680.0 , 1745.0 , 23.614 , 0.0 , 0.0 , 0.0 , 0.0 , 

3.0 , 4098.46153846 , 4362.56410256 , 3859.48717949 , 4198.46153846 , 4188.71794872 , 4057.94871795 , 4487.69230769 , 4028.71794872 , 4427.69230769 , 4234.87179487 , 4372.30769231 , 4178.46153846 , 4233.84615385 , 4188.20512821 , 1680.0 , 1744.0 , 23.622 , 0.0 , 0.0 , 0.0 , 0.0 , 

4.0 , 4108.20512821 , 4355.8974359 , 3857.43589744 , 4193.84615385 , 4182.56410256 , 4049.74358974 , 4483.07692308 , 4033.84615385 , 4435.38461538 , 4235.38461538 , 4395.38461538 , 4183.58974359 , 4235.8974359 , 4173.84615385 , 1680.0 , 1745.0 , 23.629 , 0.0 , 0.0 , 0.0 , 0.0 , 

5.0 , 4083.07692308 , 4354.35897436 , 3851.79487179 , 4192.30769231 , 4183.58974359 , 4051.79487179 , 4484.61538462 , 4031.79487179 , 4411.28205128 , 4231.79487179 , 4342.56410256 , 4172.82051282 , 4232.82051282 , 4177.43589744 , 1681.0 , 1744.0 , 23.638 , 0.0 , 0.0 , 0.0 , 0.0 , 

6.0 , 4075.38461538 , 4361.02564103 , 3858.97435897 , 4200.51282051 , 4190.25641026 , 4058.46153846 , 4490.76923077 , 4032.82051282 , 4399.48717949 , 4233.33333333 , 4283.58974359 , 4162.56410256 , 4236.92307692 , 4182.05128205 , 1680.0 , 1745.0 , 23.646 , 0.0 , 0.0 , 0.0 , 0.0 , 

7.0 , 4107.17948718 , 4361.02564103 , 3858.46153846 , 4197.43589744 , 4183.07692308 , 4054.35897436 , 4483.07692308 , 4029.23076923 , 4429.23076923 , 4233.84615385 , 4334.87179487 , 4172.82051282 , 4255.8974359 , 4167.69230769 , 1681.0 , 1744.0 , 23.654 , 0.0 , 0.0 , 0.0 , 0.0 , 

8.0 , 4122.56410256 , 4358.46153846 , 3862.56410256 , 4193.84615385 , 4181.02564103 , 4052.30769231 , 4483.58974359 , 4028.20512821 , 4431.79487179 , 4233.84615385 , 4387.17948718 , 4175.8974359 , 4235.8974359 , 4160.0 , 1680.0 , 1744.0 , 23.661 , 0.0 , 0.0 , 0.0 , 0.0 , 

9.0 , 4096.92307692 , 4356.41025641 , 3860.51282051 , 4194.87179487 , 4184.61538462 , 4049.74358974 , 4484.1025641 , 4033.33333333 , 4407.69230769 , 4233.33333333 , 4388.20512821 , 4180.51282051 , 4221.53846154 , 4169.23076923 , 1681.0 , 1745.0 , 23.668 , 0.0 , 0.0 , 0.0 , 0.0 , 

10.0 , 4068.20512821 , 4358.46153846 , 3851.79487179 , 4195.38461538 , 4187.17948718 , 4041.53846154 , 4483.07692308 , 4029.23076923 , 4414.87179487 , 4230.25641026 , 4353.84615385 , 4166.15384615 , 4249.23076923 , 4156.92307692 , 1680.0 , 1744.0 , 23.677 , 0.0 , 0.0 , 0.0 , 0.0 , 

11.0 , 4078.46153846 , 4360.0 , 3856.92307692 , 4197.43589744 , 4188.20512821 , 4037.94871795 , 4489.74358974 , 4030.76923077 , 4424.1025641 , 4232.82051282 , 4291.79487179 , 4161.02564103 , 4261.53846154 , 4168.20512821 , 1680.0 , 1745.0 , 23.684 , 0.0 , 0.0 , 0.0 , 0.0 , 

12.0 , 4105.12820513 , 4356.92307692 , 3859.48717949 , 4195.8974359 , 4182.05128205 , 4038.97435897 , 4484.61538462 , 4033.84615385 , 4426.66666667 , 4232.82051282 , 4311.28205128 , 4174.35897436 , 4258.97435897 , 4202.56410256 , 1681.0 , 1745.0 , 23.692 , 0.0 , 0.0 , 0.0 , 0.0 , 

13.0 , 4083.58974359 , 4357.94871795 , 3859.48717949 , 4199.48717949 , 4188.20512821 , 4070.76923077 , 4486.15384615 , 4030.76923077 , 4406.66666667 , 4229.74358974 , 4382.05128205 , 4157.43589744 , 4206.15384615 , 4178.97435897 , 1680.0 , 1745.0 , 23.7 , 0.0 , 0.0 , 0.0 , 0.0 , 

14.0 , 4077.43589744 , 4358.97435897 , 3856.92307692 , 4198.97435897 , 4188.71794872 , 4076.92307692 , 4490.76923077 , 4034.35897436 , 4422.05128205 , 4236.92307692 , 4406.15384615 , 4163.07692308 , 4206.15384615 , 4151.28205128 , 1680.0 , 1745.0 , 23.707 , 0.0 , 0.0 , 0.0 , 0.0 , 

15.0 , 4106.66666667 , 4356.41025641 , 3855.8974359 , 4194.35897436 , 4177.94871795 , 4050.76923077 , 4484.1025641 , 4036.92307692 , 4443.07692308 , 4242.05128205 , 4354.35897436 , 4172.30769231 , 4252.30769231 , 4149.23076923 , 1680.0 , 1745.0 , 23.715 , 0.0 , 0.0 , 0.0 , 0.0 , 

16.0 , 4108.71794872 , 4358.46153846 , 3864.61538462 , 4197.94871795 , 4181.02564103 , 4062.56410256 , 4481.02564103 , 4033.33333333 , 4387.17948718 , 4237.94871795 , 4296.41025641 , 4163.58974359 , 4209.74358974 , 4171.79487179 , 1681.0 , 1744.0 , 23.723 , 0.0 , 0.0 , 0.0 , 0.0 , 

17.0 , 4085.64102564 , 4357.43589744 , 3858.97435897 , 4197.43589744 , 4183.07692308 , 4068.20512821 , 4479.48717949 , 4029.74358974 , 4352.82051282 , 4232.82051282 , 4325.64102564 , 4176.92307692 , 4189.74358974 , 4202.56410256 , 1681.0 , 1744.0 , 23.731 , 0.0 , 0.0 , 0.0 , 0.0 , 

18.0 , 4070.25641026 , 4356.41025641 , 3853.33333333 , 4197.94871795 , 4186.15384615 , 4044.1025641 , 4487.69230769 , 4029.23076923 , 4426.15384615 , 4231.28205128 , 4377.43589744 , 4161.53846154 , 4262.05128205 , 4187.69230769 , 1680.0 , 1744.0 , 23.74 , 0.0 , 0.0 , 0.0 , 0.0 , 

19.0 , 4088.71794872 , 4360.0 , 3860.0 , 4201.02564103 , 4187.69230769 , 4007.17948718 , 4491.28205128 , 4034.87179487 , 4500.0 , 4234.35897436 , 4385.64102564 , 4153.84615385 , 4309.74358974 , 4177.43589744 , 1680.0 , 1745.0 , 23.748 , 0.0 , 0.0 , 0.0 , 0.0 , 

20.0 , 4111.79487179 , 4361.02564103 , 3860.51282051 , 4198.46153846 , 4182.56410256 , 4044.1025641 , 4481.02564103 , 4038.46153846 , 4455.38461538 , 4236.92307692 , 4354.87179487 , 4167.17948718 , 4249.23076923 , 4173.84615385 , 1681.0 , 1745.0 , 23.754 , 0.0 , 0.0 , 0.0 , 0.0 , 

21.0 , 4108.71794872 , 4360.0 , 3861.02564103 , 4196.92307692 , 4181.02564103 , 4141.02564103 , 4480.0 , 4034.87179487 , 4352.30769231 , 4238.46153846 , 4311.28205128 , 4164.1025641 , 4162.05128205 , 4164.1025641 , 1681.0 , 1745.0 , 23.762 , 0.0 , 0.0 , 0.0 , 0.0 , 

22.0 , 4090.76923077 , 4355.38461538 , 3856.92307692 , 4194.35897436 , 4182.05128205 , 4121.02564103 , 4480.51282051 , 4032.30769231 , 4351.79487179 , 4238.46153846 , 4336.41025641 , 4169.23076923 , 4185.64102564 , 4182.56410256 , 1680.0 , 1744.0 , 23.771 , 0.0 , 0.0 , 0.0 , 0.0 , 

23.0 , 4067.17948718 , 4355.8974359 , 3855.38461538 , 4196.41025641 , 4188.71794872 , 4014.35897436 , 4487.17948718 , 4028.71794872 , 4421.53846154 , 4235.38461538 , 4357.94871795 , 4156.92307692 , 4255.8974359 , 4185.64102564 , 1680.0 , 1745.0 , 23.778 , 0.0 , 0.0 , 0.0 , 0.0 , 

24.0 , 4076.41025641 , 4361.02564103 , 3857.94871795 , 4200.0 , 4187.69230769 , 3977.94871795 , 4491.28205128 , 4034.87179487 , 4462.05128205 , 4237.43589744 , 4337.43589744 , 4144.1025641 , 4280.51282051 , 4184.61538462 , 1681.0 , 1744.0 , 23.787 , 0.0 , 0.0 , 0.0 , 0.0 , 

25.0 , 4113.33333333 , 4358.46153846 , 3854.35897436 , 4195.8974359 , 4175.8974359 , 4048.71794872 , 4478.97435897 , 4043.07692308 , 4450.76923077 , 4242.56410256 , 4347.69230769 , 4158.46153846 , 4252.82051282 , 4196.41025641 , 1680.0 , 1745.0 , 23.793 , 0.0 , 0.0 , 0.0 , 0.0 , 

26.0 , 4109.23076923 , 4353.84615385 , 3861.53846154 , 4197.94871795 , 4180.0 , 4134.35897436 , 4482.05128205 , 4037.43589744 , 4384.1025641 , 4238.46153846 , 4356.92307692 , 4167.17948718 , 4188.20512821 , 4187.17948718 , 1681.0 , 1744.0 , 23.802 , 0.0 , 0.0 , 0.0 , 0.0 , 

27.0 , 4085.12820513 , 4354.35897436 , 3861.02564103 , 4194.87179487 , 4184.1025641 , 4101.02564103 , 4485.64102564 , 4036.92307692 , 4380.0 , 4234.87179487 , 4346.66666667 , 4174.35897436 , 4207.17948718 , 4171.79487179 , 1680.0 , 1745.0 , 23.81 , 0.0 , 0.0 , 0.0 , 0.0 , 

28.0 , 4093.33333333 , 4357.43589744 , 3854.87179487 , 4191.79487179 , 4183.07692308 , 4029.74358974 , 4483.58974359 , 4038.46153846 , 4425.64102564 , 4235.38461538 , 4349.23076923 , 4159.48717949 , 4246.66666667 , 4149.23076923 , 1680.0 , 1745.0 , 23.817 , 0.0 , 0.0 , 0.0 , 0.0 , 

29.0 , 4102.05128205 , 4358.46153846 , 3858.97435897 , 4197.94871795 , 4184.61538462 , 4007.69230769 , 4484.61538462 , 4036.41025641 , 4414.87179487 , 4236.92307692 , 4353.33333333 , 4146.66666667 , 4223.58974359 , 4186.66666667 , 1680.0 , 1744.0 , 23.825 , 0.0 , 0.0 , 0.0 , 0.0 , 

30.0 , 4081.53846154 , 4354.35897436 , 3852.82051282 , 4194.35897436 , 4181.02564103 , 4033.33333333 , 4480.51282051 , 4040.51282051 , 4411.79487179 , 4239.48717949 , 4355.8974359 , 4167.17948718 , 4225.64102564 , 4245.64102564 , 1680.0 , 1745.0 , 23.833 , 0.0 , 0.0 , 0.0 , 0.0 , 

31.0 , 4069.74358974 , 4356.92307692 , 3857.94871795 , 4195.8974359 , 4187.69230769 , 4104.1025641 , 4488.20512821 , 4034.35897436 , 4423.58974359 , 4234.35897436 , 4353.33333333 , 4163.58974359 , 4230.76923077 , 4205.64102564 , 1680.0 , 1745.0 , 23.84 , 0.0 , 0.0 , 0.0 , 0.0 , 

32.0 , 4095.8974359 , 4356.41025641 , 3861.02564103 , 4197.43589744 , 4185.12820513 , 4106.66666667 , 4485.12820513 , 4034.35897436 , 4412.82051282 , 4231.79487179 , 4342.56410256 , 4156.41025641 , 4213.84615385 , 4158.97435897 , 1680.0 , 1745.0 , 23.849 , 0.0 , 0.0 , 0.0 , 0.0 , 

33.0 , 4096.41025641 , 4352.30769231 , 3849.23076923 , 4193.84615385 , 4180.0 , 4052.30769231 , 4478.97435897 , 4045.64102564 , 4412.82051282 , 4237.94871795 , 4349.74358974 , 4170.76923077 , 4223.07692308 , 4163.58974359 , 1680.0 , 1744.0 , 23.857 , 0.0 , 0.0 , 0.0 , 0.0 , 

34.0 , 4079.48717949 , 4357.43589744 , 3853.84615385 , 4199.48717949 , 4187.17948718 , 4041.02564103 , 4489.23076923 , 4042.56410256 , 4416.41025641 , 4240.0 , 4356.41025641 , 4165.12820513 , 4232.30769231 , 4196.41025641 , 1680.0 , 1745.0 , 23.864 , 0.0 , 0.0 , 0.0 , 0.0 , 

35.0 , 4101.02564103 , 4357.94871795 , 3855.38461538 , 4196.41025641 , 4181.53846154 , 4057.43589744 , 4483.07692308 , 4042.05128205 , 4425.12820513 , 4241.53846154 , 4351.79487179 , 4161.53846154 , 4228.20512821 , 4215.8974359 , 1681.0 , 1744.0 , 23.872 , 0.0 , 0.0 , 0.0 , 0.0 , 

36.0 , 4105.64102564 , 4355.38461538 , 3856.41025641 , 4194.35897436 , 4181.53846154 , 4075.8974359 , 4478.46153846 , 4043.07692308 , 4431.79487179 , 4240.51282051 , 4357.43589744 , 4168.20512821 , 4232.82051282 , 4180.51282051 , 1679.0 , 1745.0 , 23.88 , 0.0 , 0.0 , 0.0 , 0.0 , 

37.0 , 4087.17948718 , 4356.92307692 , 3857.94871795 , 4198.46153846 , 4188.20512821 , 4071.28205128 , 4483.58974359 , 4040.51282051 , 4417.43589744 , 4238.97435897 , 4353.84615385 , 4166.66666667 , 4230.25641026 , 4173.84615385 , 1681.0 , 1744.0 , 23.888 , 0.0 , 0.0 , 0.0 , 0.0 , 

38.0 , 4086.15384615 , 4354.87179487 , 3852.82051282 , 4195.38461538 , 4185.12820513 , 4051.79487179 , 4482.56410256 , 4043.58974359 , 4418.97435897 , 4240.51282051 , 4351.79487179 , 4169.23076923 , 4229.74358974 , 4195.38461538 , 1680.0 , 1745.0 , 23.896 , 0.0 , 0.0 , 0.0 , 0.0 , 

39.0 , 4088.71794872 , 4356.41025641 , 3856.41025641 , 4196.92307692 , 4185.12820513 , 4061.02564103 , 4483.58974359 , 4041.02564103 , 4434.87179487 , 4239.48717949 , 4357.94871795 , 4166.15384615 , 4236.41025641 , 4187.69230769 , 1680.0 , 1745.0 , 23.904 , 0.0 , 0.0 , 0.0 , 0.0 , 

40.0 , 4090.76923077 , 4356.41025641 , 3851.28205128 , 4198.46153846 , 4183.58974359 , 4070.76923077 , 4482.05128205 , 4038.46153846 , 4427.69230769 , 4238.97435897 , 4354.35897436 , 4165.12820513 , 4229.23076923 , 4180.0 , 1680.0 , 1744.0 , 23.912 , 0.0 , 0.0 , 0.0 , 0.0 , 

41.0 , 4093.84615385 , 4356.41025641 , 3853.84615385 , 4199.48717949 , 4185.64102564 , 4070.76923077 , 4485.64102564 , 4038.46153846 , 4412.82051282 , 4236.41025641 , 4352.30769231 , 4171.28205128 , 4224.1025641 , 4181.53846154 , 1680.0 , 1746.0 , 23.919 , 0.0 , 0.0 , 0.0 , 0.0 , 

42.0 , 4106.66666667 , 4360.0 , 3860.51282051 , 4195.8974359 , 4183.58974359 , 4070.25641026 , 4483.07692308 , 4042.05128205 , 4414.87179487 , 4239.48717949 , 4353.84615385 , 4167.17948718 , 4229.23076923 , 4180.0 , 1681.0 , 1745.0 , 23.927 , 0.0 , 0.0 , 0.0 , 0.0 , 

43.0 , 4104.1025641 , 4356.92307692 , 3852.30769231 , 4190.25641026 , 4178.97435897 , 4054.35897436 , 4474.35897436 , 4039.48717949 , 4437.43589744 , 4244.1025641 , 4359.48717949 , 4169.74358974 , 4242.56410256 , 4179.48717949 , 1680.0 , 1745.0 , 23.935 , 0.0 , 0.0 , 0.0 , 0.0 , 

44.0 , 4075.8974359 , 4356.92307692 , 3855.8974359 , 4200.51282051 , 4190.25641026 , 4052.30769231 , 4486.15384615 , 4026.66666667 , 4436.92307692 , 4233.33333333 , 4360.0 , 4168.71794872 , 4243.07692308 , 4178.97435897 , 1681.0 , 1744.0 , 23.943 , 0.0 , 0.0 , 0.0 , 0.0 , 

45.0 , 4085.12820513 , 4358.46153846 , 3861.02564103 , 4203.07692308 , 4187.69230769 , 4072.30769231 , 4489.74358974 , 4026.66666667 , 4406.66666667 , 4230.76923077 , 4348.71794872 , 4165.64102564 , 4219.48717949 , 4170.76923077 , 1681.0 , 1745.0 , 23.951 , 0.0 , 0.0 , 0.0 , 0.0 , 

46.0 , 4114.87179487 , 4357.94871795 , 3861.02564103 , 4194.87179487 , 4177.43589744 , 4066.15384615 , 4482.56410256 , 4035.38461538 , 4416.41025641 , 4242.05128205 , 4350.25641026 , 4173.84615385 , 4221.53846154 , 4165.12820513 , 1680.0 , 1745.0 , 23.959 , 0.0 , 0.0 , 0.0 , 0.0 , 

47.0 , 4108.71794872 , 4356.92307692 , 3861.02564103 , 4195.38461538 , 4182.05128205 , 4050.25641026 , 4482.05128205 , 4034.35897436 , 4438.46153846 , 4242.56410256 , 4356.92307692 , 4170.25641026 , 4241.53846154 , 4166.15384615 , 1680.0 , 1745.0 , 23.966 , 0.0 , 0.0 , 0.0 , 0.0 , 

48.0 , 4085.12820513 , 4351.79487179 , 3852.82051282 , 4197.43589744 , 4185.64102564 , 4049.74358974 , 4481.53846154 , 4030.25641026 , 4431.28205128 , 4236.41025641 , 4357.43589744 , 4168.71794872 , 4246.66666667 , 4174.87179487 , 1681.0 , 1745.0 , 23.974 , 0.0 , 0.0 , 0.0 , 0.0 , 

49.0 , 4073.33333333 , 4355.8974359 , 3853.33333333 , 4200.0 , 4188.20512821 , 4059.48717949 , 4488.20512821 , 4029.23076923 , 4420.0 , 4231.79487179 , 4353.84615385 , 4172.82051282 , 4236.92307692 , 4172.82051282 , 1680.0 , 1745.0 , 23.981 , 0.0 , 0.0 , 0.0 , 0.0 , 

50.0 , 4086.15384615 , 4358.97435897 , 3854.87179487 , 4197.94871795 , 4185.64102564 , 4075.8974359 , 4487.69230769 , 4030.76923077 , 4409.23076923 , 4231.28205128 , 4361.53846154 , 4170.76923077 , 4220.0 , 4161.02564103 , 1681.0 , 1745.0 , 23.99 , 0.0 , 0.0 , 0.0 , 0.0 , 

51.0 , 4104.61538462 , 4356.41025641 , 3861.02564103 , 4196.41025641 , 4182.05128205 , 4071.28205128 , 4482.56410256 , 4031.79487179 , 4416.92307692 , 4237.94871795 , 4350.76923077 , 4176.41025641 , 4226.66666667 , 4163.58974359 , 1680.0 , 1744.0 , 23.998 , 0.0 , 0.0 , 0.0 , 0.0 , 

52.0 , 4103.58974359 , 4355.8974359 , 3864.1025641 , 4201.02564103 , 4183.58974359 , 4056.41025641 , 4484.61538462 , 4033.33333333 , 4431.79487179 , 4238.97435897 , 4322.56410256 , 4172.82051282 , 4241.53846154 , 4165.12820513 , 1680.0 , 1745.0 , 24.006 , 0.0 , 0.0 , 0.0 , 0.0 , 

53.0 , 4085.12820513 , 4354.35897436 , 3848.20512821 , 4197.43589744 , 4182.05128205 , 4051.28205128 , 4481.02564103 , 4030.76923077 , 4426.15384615 , 4233.33333333 , 4340.0 , 4168.20512821 , 4239.48717949 , 4167.17948718 , 1681.0 , 1744.0 , 24.012 , 0.0 , 0.0 , 0.0 , 0.0 , 

54.0 , 4071.79487179 , 4356.92307692 , 3852.30769231 , 4197.43589744 , 4186.66666667 , 4059.48717949 , 4486.66666667 , 4031.28205128 , 4406.66666667 , 4232.82051282 , 4364.61538462 , 4173.84615385 , 4229.23076923 , 4171.28205128 , 1680.0 , 1745.0 , 24.021 , 0.0 , 0.0 , 0.0 , 0.0 , 

55.0 , 4094.35897436 , 4360.0 , 3860.51282051 , 4197.43589744 , 4184.61538462 , 4074.87179487 , 4491.28205128 , 4036.41025641 , 4414.87179487 , 4236.41025641 , 4383.07692308 , 4174.35897436 , 4225.12820513 , 4166.66666667 , 1681.0 , 1744.0 , 24.029 , 0.0 , 0.0 , 0.0 , 0.0 , 

56.0 , 4112.30769231 , 4356.92307692 , 3851.79487179 , 4194.35897436 , 4179.48717949 , 4064.1025641 , 4485.64102564 , 4031.79487179 , 4431.79487179 , 4235.38461538 , 4357.43589744 , 4167.17948718 , 4237.43589744 , 4158.46153846 , 1680.0 , 1745.0 , 24.037 , 0.0 , 0.0 , 0.0 , 0.0 , 

57.0 , 4093.84615385 , 4353.33333333 , 3856.41025641 , 4200.0 , 4187.17948718 , 4050.76923077 , 4485.64102564 , 4031.28205128 , 4406.15384615 , 4233.33333333 , 4289.74358974 , 4175.38461538 , 4240.0 , 4159.48717949 , 1680.0 , 1745.0 , 24.044 , 0.0 , 0.0 , 0.0 , 0.0 , 

58.0 , 4085.12820513 , 4353.84615385 , 3858.97435897 , 4196.41025641 , 4186.15384615 , 4055.8974359 , 4482.05128205 , 4030.25641026 , 4392.30769231 , 4232.82051282 , 4310.25641026 , 4181.02564103 , 4237.43589744 , 4161.53846154 , 1680.0 , 1745.0 , 24.052 , 0.0 , 0.0 , 0.0 , 0.0 , 

59.0 , 4088.20512821 , 4356.41025641 , 3856.92307692 , 4196.92307692 , 4185.12820513 , 4060.0 , 4486.66666667 , 4029.23076923 , 4418.46153846 , 4234.87179487 , 4373.33333333 , 4148.71794872 , 4230.25641026 , 4156.92307692 , 1680.0 , 1744.0 , 24.059 , 0.0 , 0.0 , 0.0 , 0.0 , 

60.0 , 4092.30769231 , 4357.94871795 , 3855.8974359 , 4202.05128205 , 4185.12820513 , 4063.07692308 , 4488.71794872 , 4036.41025641 , 4444.61538462 , 4236.41025641 , 4401.02564103 , 4148.71794872 , 4243.58974359 , 4175.38461538 , 1680.0 , 1744.0 , 24.067 , 0.0 , 0.0 , 0.0 , 0.0 , 

61.0 , 4094.87179487 , 4357.94871795 , 3854.35897436 , 4196.92307692 , 4184.61538462 , 4065.12820513 , 4481.53846154 , 4033.84615385 , 4427.17948718 , 4233.33333333 , 4360.51282051 , 4173.84615385 , 4242.56410256 , 4187.69230769 , 1680.0 , 1745.0 , 24.076 , 0.0 , 0.0 , 0.0 , 0.0 , 

62.0 , 4089.74358974 , 4358.97435897 , 3860.0 , 4196.41025641 , 4191.28205128 , 4058.46153846 , 4487.17948718 , 4031.79487179 , 4375.38461538 , 4233.33333333 , 4275.8974359 , 4173.84615385 , 4194.35897436 , 4169.23076923 , 1681.0 , 1744.0 , 24.084 , 0.0 , 0.0 , 0.0 , 0.0 , 

63.0 , 4098.46153846 , 4356.41025641 , 3858.97435897 , 4197.43589744 , 4185.12820513 , 4042.05128205 , 4485.12820513 , 4035.38461538 , 4386.66666667 , 4236.41025641 , 4297.43589744 , 4177.94871795 , 4210.76923077 , 4145.12820513 , 1680.0 , 1745.0 , 24.091 , 0.0 , 0.0 , 0.0 , 0.0 , 

64.0 , 4093.84615385 , 4354.87179487 , 3855.8974359 , 4200.51282051 , 4183.07692308 , 4063.58974359 , 4485.12820513 , 4032.30769231 , 4420.51282051 , 4236.41025641 , 4371.28205128 , 4153.33333333 , 4235.38461538 , 4131.79487179 , 1681.0 , 1744.0 , 24.098 , 0.0 , 0.0 , 0.0 , 0.0 , 

65.0 , 4078.97435897 , 4356.41025641 , 3854.87179487 , 4203.07692308 , 4189.74358974 , 4072.82051282 , 4491.28205128 , 4032.30769231 , 4432.82051282 , 4233.84615385 , 4391.28205128 , 4153.33333333 , 4234.35897436 , 4187.17948718 , 1680.0 , 1745.0 , 24.106 , 0.0 , 0.0 , 0.0 , 0.0 , 

66.0 , 4098.97435897 , 4353.33333333 , 3855.38461538 , 4195.8974359 , 4183.58974359 , 4054.87179487 , 4481.53846154 , 4034.87179487 , 4433.84615385 , 4233.33333333 , 4355.8974359 , 4168.71794872 , 4241.02564103 , 4239.48717949 , 1681.0 , 1745.0 , 24.114 , 0.0 , 0.0 , 0.0 , 0.0 , 

67.0 , 4114.35897436 , 4356.92307692 , 3866.15384615 , 4197.43589744 , 4182.05128205 , 4074.87179487 , 4480.0 , 4032.82051282 , 4385.64102564 , 4236.92307692 , 4299.48717949 , 4151.28205128 , 4203.07692308 , 4185.64102564 , 1680.0 , 1744.0 , 24.123 , 0.0 , 0.0 , 0.0 , 0.0 , 

68.0 , 4092.82051282 , 4359.48717949 , 3856.92307692 , 4196.92307692 , 4184.1025641 , 4076.41025641 , 4483.07692308 , 4032.30769231 , 4359.48717949 , 4238.46153846 , 4313.33333333 , 4165.12820513 , 4197.94871795 , 4117.94871795 , 1681.0 , 1745.0 , 24.131 , 0.0 , 0.0 , 0.0 , 0.0 , 

69.0 , 4082.56410256 , 4356.41025641 , 3846.15384615 , 4191.79487179 , 4185.12820513 , 4042.05128205 , 4484.61538462 , 4031.28205128 , 4408.71794872 , 4235.38461538 , 4355.38461538 , 4163.07692308 , 4244.1025641 , 4118.46153846 , 1680.0 , 1744.0 , 24.139 , 0.0 , 0.0 , 0.0 , 0.0 , 

70.0 , 4098.97435897 , 4356.92307692 , 3854.87179487 , 4193.33333333 , 4184.1025641 , 4013.84615385 , 4484.61538462 , 4032.30769231 , 4449.74358974 , 4235.38461538 , 4363.07692308 , 4153.33333333 , 4273.84615385 , 4199.48717949 , 1681.0 , 1745.0 , 24.145 , 0.0 , 0.0 , 0.0 , 0.0 , 

71.0 , 4092.82051282 , 4355.38461538 , 3854.35897436 , 4194.35897436 , 4178.97435897 , 4035.38461538 , 4476.41025641 , 4033.84615385 , 4434.35897436 , 4234.87179487 , 4356.92307692 , 4165.12820513 , 4257.43589744 , 4272.30769231 , 1680.0 , 1745.0 , 24.153 , 0.0 , 0.0 , 0.0 , 0.0 , 

72.0 , 4064.1025641 , 4355.8974359 , 3853.84615385 , 4200.0 , 4190.25641026 , 4103.58974359 , 4486.66666667 , 4030.76923077 , 4374.35897436 , 4233.33333333 , 4322.56410256 , 4148.71794872 , 4184.61538462 , 4210.76923077 , 1680.0 , 1746.0 , 24.161 , 0.0 , 0.0 , 0.0 , 0.0 , 

73.0 , 4080.0 , 4357.43589744 , 3852.82051282 , 4198.97435897 , 4189.74358974 , 4095.38461538 , 4489.74358974 , 4035.38461538 , 4381.02564103 , 4236.92307692 , 4316.92307692 , 4156.41025641 , 4186.66666667 , 4110.25641026 , 1680.0 , 1745.0 , 24.17 , 0.0 , 0.0 , 0.0 , 0.0 , 

74.0 , 4119.48717949 , 4356.92307692 , 3856.41025641 , 4191.79487179 , 4177.43589744 , 4059.48717949 , 4477.43589744 , 4042.05128205 , 4423.07692308 , 4237.94871795 , 4348.71794872 , 4160.0 , 4233.33333333 , 4115.8974359 , 1680.0 , 1745.0 , 24.177 , 0.0 , 0.0 , 0.0 , 0.0 , 

75.0 , 4109.23076923 , 4356.41025641 , 3864.61538462 , 4197.43589744 , 4182.56410256 , 4077.43589744 , 4478.46153846 , 4041.53846154 , 4395.8974359 , 4235.38461538 , 4353.84615385 , 4152.30769231 , 4218.97435897 , 4204.61538462 , 1681.0 , 1744.0 , 24.185 , 0.0 , 0.0 , 0.0 , 0.0 , 

76.0 , 4082.05128205 , 4353.33333333 , 3852.30769231 , 4198.46153846 , 4184.1025641 , 4068.20512821 , 4476.92307692 , 4038.97435897 , 4379.48717949 , 4235.38461538 , 4348.20512821 , 4163.58974359 , 4220.51282051 , 4259.48717949 , 1680.0 , 1745.0 , 24.193 , 0.0 , 0.0 , 0.0 , 0.0 , 

77.0 , 4083.07692308 , 4354.87179487 , 3851.28205128 , 4195.38461538 , 4184.61538462 , 4034.87179487 , 4480.0 , 4034.35897436 , 4421.02564103 , 4235.38461538 , 4348.20512821 , 4150.25641026 , 4245.12820513 , 4203.07692308 , 1680.0 , 1745.0 , 24.2 , 0.0 , 0.0 , 0.0 , 0.0 , 

78.0 , 4092.30769231 , 4356.92307692 , 3861.02564103 , 4193.84615385 , 4186.15384615 , 4015.8974359 , 4486.15384615 , 4037.94871795 , 4444.1025641 , 4235.38461538 , 4344.61538462 , 4154.35897436 , 4247.17948718 , 4146.15384615 , 1680.0 , 1745.0 , 24.208 , 0.0 , 0.0 , 0.0 , 0.0 , 

79.0 , 4103.07692308 , 4356.92307692 , 3855.8974359 , 4193.33333333 , 4181.53846154 , 4061.02564103 , 4483.58974359 , 4041.53846154 , 4415.38461538 , 4236.92307692 , 4348.71794872 , 4169.74358974 , 4232.30769231 , 4141.53846154 , 1680.0 , 1745.0 , 24.217 , 0.0 , 0.0 , 0.0 , 0.0 , 

80.0 , 4098.46153846 , 4357.43589744 , 3855.8974359 , 4199.48717949 , 4183.58974359 , 4124.1025641 , 4482.56410256 , 4037.43589744 , 4375.8974359 , 4237.94871795 , 4350.25641026 , 4154.87179487 , 4212.30769231 , 4189.74358974 , 1681.0 , 1745.0 , 24.225 , 0.0 , 0.0 , 0.0 , 0.0 , 

81.0 , 4083.58974359 , 4354.35897436 , 3850.76923077 , 4196.92307692 , 4183.58974359 , 4089.74358974 , 4479.48717949 , 4038.97435897 , 4396.92307692 , 4237.94871795 , 4350.25641026 , 4155.8974359 , 4224.1025641 , 4252.82051282 , 1681.0 , 1744.0 , 24.231 , 0.0 , 0.0 , 0.0 , 0.0 , 

82.0 , 4087.17948718 , 4356.41025641 , 3852.82051282 , 4192.82051282 , 4185.12820513 , 4026.66666667 , 4483.07692308 , 4035.8974359 , 4413.33333333 , 4233.33333333 , 4354.35897436 , 4170.25641026 , 4233.84615385 , 4215.8974359 , 1679.0 , 1746.0 , 24.24 , 0.0 , 0.0 , 0.0 , 0.0 , 

83.0 , 4095.8974359 , 4360.51282051 , 3860.51282051 , 4193.84615385 , 4182.05128205 , 4018.97435897 , 4482.05128205 , 4038.46153846 , 4400.51282051 , 4235.38461538 , 4346.15384615 , 4169.74358974 , 4220.0 , 4160.0 , 1681.0 , 1744.0 , 24.247 , 0.0 , 0.0 , 0.0 , 0.0 , 

84.0 , 4098.46153846 , 4357.43589744 , 3852.30769231 , 4191.28205128 , 4177.43589744 , 4061.02564103 , 4476.92307692 , 4048.20512821 , 4415.38461538 , 4242.05128205 , 4348.20512821 , 4168.20512821 , 4225.12820513 , 4154.87179487 , 1679.0 , 1745.0 , 24.256 , 0.0 , 0.0 , 0.0 , 0.0 , 

85.0 , 4085.12820513 , 4356.92307692 , 3854.35897436 , 4196.41025641 , 4188.71794872 , 4105.12820513 , 4485.12820513 , 4038.46153846 , 4416.92307692 , 4235.8974359 , 4355.8974359 , 4167.69230769 , 4231.28205128 , 4186.15384615 , 1680.0 , 1745.0 , 24.263 , 0.0 , 0.0 , 0.0 , 0.0 , 

86.0 , 4092.30769231 , 4356.41025641 , 3853.84615385 , 4192.82051282 , 4184.61538462 , 4065.64102564 , 4480.0 , 4037.94871795 , 4408.71794872 , 4235.38461538 , 4349.23076923 , 4169.74358974 , 4227.17948718 , 4224.61538462 , 1680.0 , 1745.0 , 24.27 , 0.0 , 0.0 , 0.0 , 0.0 , 

87.0 , 4110.25641026 , 4354.87179487 , 3847.69230769 , 4190.25641026 , 4175.8974359 , 4034.87179487 , 4476.41025641 , 4047.69230769 , 4427.69230769 , 4244.1025641 , 4355.38461538 , 4176.92307692 , 4240.0 , 4193.84615385 , 1680.0 , 1745.0 , 24.278 , 0.0 , 0.0 , 0.0 , 0.0 , 

88.0 , 4070.25641026 , 4356.41025641 , 3848.20512821 , 4200.51282051 , 4188.20512821 , 4067.69230769 , 4486.66666667 , 4040.51282051 , 4430.25641026 , 4241.53846154 , 4357.43589744 , 4171.28205128 , 4240.51282051 , 4172.82051282 , 1680.0 , 1745.0 , 24.287 , 0.0 , 0.0 , 0.0 , 0.0 , 

89.0 , 4057.94871795 , 4357.94871795 , 3848.20512821 , 4198.97435897 , 4189.23076923 , 4083.58974359 , 4484.61538462 , 4039.48717949 , 4413.33333333 , 4235.8974359 , 4347.69230769 , 4167.69230769 , 4221.53846154 , 4192.82051282 , 1680.0 , 1745.0 , 24.294 , 0.0 , 0.0 , 0.0 , 0.0 , 

90.0 , 4106.66666667 , 4357.94871795 , 3854.87179487 , 4189.74358974 , 4179.48717949 , 4071.28205128 , 4479.48717949 , 4044.1025641 , 4417.94871795 , 4240.0 , 4352.30769231 , 4166.15384615 , 4226.66666667 , 4188.20512821 , 1680.0 , 1744.0 , 24.303 , 0.0 , 0.0 , 0.0 , 0.0 , 

91.0 , 4117.43589744 , 4353.33333333 , 3852.82051282 , 4184.61538462 , 4180.0 , 4051.79487179 , 4473.33333333 , 4043.07692308 , 4420.51282051 , 4244.1025641 , 4358.46153846 , 4167.17948718 , 4238.97435897 , 4181.02564103 , 1680.0 , 1745.0 , 24.311 , 0.0 , 0.0 , 0.0 , 0.0 , 

92.0 , 4088.71794872 , 4355.38461538 , 3853.33333333 , 4189.23076923 , 4189.23076923 , 4050.76923077 , 4477.94871795 , 4041.02564103 , 4411.28205128 , 4237.94871795 , 4357.94871795 , 4175.8974359 , 4237.94871795 , 4184.1025641 , 1681.0 , 1744.0 , 24.318 , 0.0 , 0.0 , 0.0 , 0.0 , 

93.0 , 4073.33333333 , 4359.48717949 , 3857.43589744 , 4198.46153846 , 4188.20512821 , 4071.79487179 , 4487.17948718 , 4041.53846154 , 4407.69230769 , 4233.84615385 , 4351.79487179 , 4171.79487179 , 4229.23076923 , 4182.05128205 , 1680.0 , 1745.0 , 24.325 , 0.0 , 0.0 , 0.0 , 0.0 , 

94.0 , 4073.33333333 , 4354.87179487 , 3847.69230769 , 4194.35897436 , 4177.43589744 , 4078.97435897 , 4483.07692308 , 4041.53846154 , 4412.30769231 , 4239.48717949 , 4347.69230769 , 4173.84615385 , 4223.58974359 , 4179.48717949 , 1681.0 , 1744.0 , 24.334 , 0.0 , 0.0 , 0.0 , 0.0 , 

95.0 , 4089.74358974 , 4358.97435897 , 3856.41025641 , 4195.38461538 , 4180.51282051 , 4069.74358974 , 4485.12820513 , 4035.8974359 , 4412.82051282 , 4237.94871795 , 4352.82051282 , 4177.94871795 , 4224.61538462 , 4173.84615385 , 1679.0 , 1745.0 , 24.342 , 0.0 , 0.0 , 0.0 , 0.0 , 

96.0 , 4107.17948718 , 4360.51282051 , 3856.41025641 , 4194.35897436 , 4180.51282051 , 4071.28205128 , 4484.1025641 , 4035.38461538 , 4405.12820513 , 4236.92307692 , 4356.92307692 , 4170.25641026 , 4226.66666667 , 4167.69230769 , 1681.0 , 1745.0 , 24.349 , 0.0 , 0.0 , 0.0 , 0.0 , 

97.0 , 4092.82051282 , 4353.84615385 , 3846.66666667 , 4189.23076923 , 4177.94871795 , 4060.0 , 4481.02564103 , 4036.41025641 , 4423.58974359 , 4241.02564103 , 4359.48717949 , 4173.33333333 , 4243.07692308 , 4175.38461538 , 1680.0 , 1744.0 , 24.358 , 0.0 , 0.0 , 0.0 , 0.0 , 

98.0 , 4091.79487179 , 4357.43589744 , 3856.92307692 , 4197.94871795 , 4183.58974359 , 4052.30769231 , 4487.69230769 , 4029.23076923 , 4432.30769231 , 4236.41025641 , 4354.87179487 , 4174.87179487 , 4246.66666667 , 4176.41025641 , 1680.0 , 1745.0 , 24.365 , 0.0 , 0.0 , 0.0 , 0.0 , 

99.0 , 4098.97435897 , 4356.92307692 , 3853.84615385 , 4198.97435897 , 4182.56410256 , 4064.61538462 , 4483.07692308 , 4028.20512821 , 4410.76923077 , 4236.92307692 , 4352.30769231 , 4174.87179487 , 4228.20512821 , 4171.79487179 , 1680.0 , 1744.0 , 24.373 , 0.0 , 0.0 , 0.0 , 0.0 , 

100.0 , 4075.8974359 , 4353.33333333 , 3852.30769231 , 4193.84615385 , 4185.64102564 , 4068.20512821 , 4482.05128205 , 4031.28205128 , 4402.05128205 , 4238.97435897 , 4347.17948718 , 4178.97435897 , 4225.64102564 , 4175.38461538 , 1680.0 , 1744.0 , 24.38 , 0.0 , 0.0 , 0.0 , 0.0 , 

101.0 , 4102.56410256 , 4358.46153846 , 3860.51282051 , 4190.25641026 , 4183.58974359 , 4063.07692308 , 4480.0 , 4032.30769231 , 4406.66666667 , 4235.38461538 , 4357.94871795 , 4175.8974359 , 4231.79487179 , 4172.30769231 , 1680.0 , 1744.0 , 24.388 , 0.0 , 0.0 , 0.0 , 0.0 , 

102.0 , 4121.02564103 , 4356.92307692 , 3858.46153846 , 4191.28205128 , 4181.02564103 , 4051.79487179 , 4475.8974359 , 4029.74358974 , 4420.0 , 4234.35897436 , 4363.07692308 , 4180.51282051 , 4244.61538462 , 4170.25641026 , 1681.0 , 1745.0 , 24.397 , 0.0 , 0.0 , 0.0 , 0.0 , 

103.0 , 4080.0 , 4353.84615385 , 3854.35897436 , 4198.97435897 , 4191.28205128 , 4047.17948718 , 4487.17948718 , 4027.69230769 , 4426.66666667 , 4233.33333333 , 4333.33333333 , 4181.02564103 , 4251.79487179 , 4167.69230769 , 1681.0 , 1744.0 , 24.403 , 0.0 , 0.0 , 0.0 , 0.0 , 

104.0 , 4072.30769231 , 4354.35897436 , 3846.66666667 , 4194.87179487 , 4186.66666667 , 4055.8974359 , 4487.69230769 , 4027.17948718 , 4414.35897436 , 4233.84615385 , 4334.87179487 , 4175.38461538 , 4236.92307692 , 4165.64102564 , 1679.0 , 1745.0 , 24.411 , 0.0 , 0.0 , 0.0 , 0.0 , 

105.0 , 4081.53846154 , 4353.84615385 , 3852.30769231 , 4192.82051282 , 4184.1025641 , 4065.12820513 , 4484.61538462 , 4030.76923077 , 4400.51282051 , 4236.92307692 , 4354.87179487 , 4176.92307692 , 4226.15384615 , 4163.07692308 , 1681.0 , 1744.0 , 24.42 , 0.0 , 0.0 , 0.0 , 0.0 , 

106.0 , 4101.53846154 , 4357.43589744 , 3863.07692308 , 4195.38461538 , 4184.61538462 , 4069.74358974 , 4484.1025641 , 4034.35897436 , 4411.79487179 , 4234.87179487 , 4376.92307692 , 4187.17948718 , 4233.84615385 , 4163.07692308 , 1680.0 , 1745.0 , 24.427 , 0.0 , 0.0 , 0.0 , 0.0 , 

107.0 , 4114.87179487 , 4358.46153846 , 3854.87179487 , 4190.25641026 , 4179.48717949 , 4054.87179487 , 4478.46153846 , 4026.66666667 , 4428.20512821 , 4230.25641026 , 4371.28205128 , 4178.97435897 , 4248.20512821 , 4162.05128205 , 1681.0 , 1745.0 , 24.435 , 0.0 , 0.0 , 0.0 , 0.0 , 

108.0 , 4084.61538462 , 4356.92307692 , 3851.28205128 , 4194.35897436 , 4186.15384615 , 4046.15384615 , 4484.1025641 , 4027.17948718 , 4404.61538462 , 4231.79487179 , 4310.76923077 , 4156.92307692 , 4243.58974359 , 4163.07692308 , 1680.0 , 1744.0 , 24.444 , 0.0 , 0.0 , 0.0 , 0.0 , 

109.0 , 4073.84615385 , 4356.41025641 , 3849.74358974 , 4197.43589744 , 4186.15384615 , 4058.97435897 , 4485.12820513 , 4034.35897436 , 4388.20512821 , 4234.35897436 , 4307.17948718 , 4171.28205128 , 4240.0 , 4171.79487179 , 1680.0 , 1745.0 , 24.45 , 0.0 , 0.0 , 0.0 , 0.0 , 

110.0 , 4090.25641026 , 4359.48717949 , 3852.30769231 , 4196.92307692 , 4185.12820513 , 4066.15384615 , 4487.17948718 , 4031.79487179 , 4402.05128205 , 4234.87179487 , 4355.8974359 , 4177.43589744 , 4223.07692308 , 4161.02564103 , 1681.0 , 1744.0 , 24.459 , 0.0 , 0.0 , 0.0 , 0.0 , 

111.0 , 4109.23076923 , 4361.53846154 , 3859.48717949 , 4199.48717949 , 4186.15384615 , 4060.51282051 , 4489.23076923 , 4034.35897436 , 4420.51282051 , 4236.41025641 , 4392.30769231 , 4176.41025641 , 4224.61538462 , 4160.51282051 , 1680.0 , 1745.0 , 24.467 , 0.0 , 0.0 , 0.0 , 0.0 , 

112.0 , 4113.84615385 , 4355.8974359 , 3855.38461538 , 4194.87179487 , 4179.48717949 , 4049.23076923 , 4477.94871795 , 4033.84615385 , 4432.30769231 , 4234.35897436 , 4379.48717949 , 4173.84615385 , 4256.92307692 , 4172.82051282 , 1681.0 , 1744.0 , 24.475 , 0.0 , 0.0 , 0.0 , 0.0 , 

113.0 , 4084.1025641 , 4353.84615385 , 3854.87179487 , 4196.92307692 , 4184.61538462 , 4051.79487179 , 4481.02564103 , 4029.74358974 , 4393.84615385 , 4232.82051282 , 4298.97435897 , 4144.1025641 , 4224.61538462 , 4167.69230769 , 1681.0 , 1745.0 , 24.482 , 0.0 , 0.0 , 0.0 , 0.0 , 

114.0 , 4066.15384615 , 4355.38461538 , 3849.74358974 , 4200.0 , 4187.17948718 , 4064.61538462 , 4487.17948718 , 4033.84615385 , 4374.35897436 , 4233.84615385 , 4277.43589744 , 4157.43589744 , 4203.58974359 , 4173.84615385 , 1680.0 , 1744.0 , 24.489 , 0.0 , 0.0 , 0.0 , 0.0 , 

115.0 , 4087.69230769 , 4360.51282051 , 3847.69230769 , 4195.38461538 , 4183.58974359 , 4062.56410256 , 4486.15384615 , 4035.38461538 , 4402.56410256 , 4233.84615385 , 4353.33333333 , 4178.97435897 , 4229.74358974 , 4163.07692308 , 1680.0 , 1745.0 , 24.498 , 0.0 , 0.0 , 0.0 , 0.0 , 

116.0 , 4114.87179487 , 4362.56410256 , 3854.87179487 , 4194.87179487 , 4182.56410256 , 4049.23076923 , 4483.07692308 , 4034.87179487 , 4419.48717949 , 4234.35897436 , 4413.33333333 , 4189.74358974 , 4243.58974359 , 4160.51282051 , 1681.0 , 1744.0 , 24.505 , 0.0 , 0.0 , 0.0 , 0.0 , 

117.0 , 4100.51282051 , 4352.82051282 , 3852.30769231 , 4193.84615385 , 4181.53846154 , 4045.64102564 , 4473.84615385 , 4033.84615385 , 4422.05128205 , 4232.30769231 , 4387.17948718 , 4181.53846154 , 4255.8974359 , 4196.92307692 , 1680.0 , 1745.0 , 24.513 , 0.0 , 0.0 , 0.0 , 0.0 , 

118.0 , 4067.17948718 , 4353.84615385 , 3855.8974359 , 4198.97435897 , 4188.20512821 , 4062.56410256 , 4482.05128205 , 4033.84615385 , 4389.74358974 , 4230.76923077 , 4297.94871795 , 4128.20512821 , 4215.8974359 , 4199.48717949 , 1681.0 , 1746.0 , 24.521 , 0.0 , 0.0 , 0.0 , 0.0 , 

119.0 , 4090.25641026 , 4363.58974359 , 3853.33333333 , 4198.46153846 , 4182.56410256 , 4045.12820513 , 4486.66666667 , 4034.87179487 , 4376.92307692 , 4234.35897436 , 4294.87179487 , 4133.33333333 , 4207.69230769 , 4164.61538462 , 1681.0 , 1744.0 , 24.53 , 0.0 , 0.0 , 0.0 , 0.0 , 

120.0 , 4117.43589744 , 4358.46153846 , 3847.17948718 , 4192.82051282 , 4176.92307692 , 4049.74358974 , 4479.48717949 , 4032.82051282 , 4412.82051282 , 4235.8974359 , 4360.0 , 4180.51282051 , 4243.58974359 , 4127.69230769 , 1680.0 , 1745.0 , 24.536 , 0.0 , 0.0 , 0.0 , 0.0 , 

121.0 , 4087.69230769 , 4353.33333333 , 3853.33333333 , 4198.46153846 , 4190.25641026 , 4098.97435897 , 4484.1025641 , 4033.33333333 , 4417.43589744 , 4234.87179487 , 4363.58974359 , 4200.51282051 , 4224.61538462 , 4167.17948718 , 1681.0 , 1744.0 , 24.544 , 0.0 , 0.0 , 0.0 , 0.0 , 

122.0 , 4065.64102564 , 4357.43589744 , 3850.76923077 , 4199.48717949 , 4188.71794872 , 4086.66666667 , 4483.07692308 , 4032.82051282 , 4402.05128205 , 4233.84615385 , 4342.56410256 , 4184.61538462 , 4208.20512821 , 4237.43589744 , 1680.0 , 1745.0 , 24.553 , 0.0 , 0.0 , 0.0 , 0.0 , 

123.0 , 4091.28205128 , 4361.53846154 , 3854.87179487 , 4195.8974359 , 4182.56410256 , 4049.74358974 , 4482.56410256 , 4030.25641026 , 4385.12820513 , 4234.87179487 , 4325.12820513 , 4122.56410256 , 4219.48717949 , 4202.56410256 , 1681.0 , 1744.0 , 24.561 , 0.0 , 0.0 , 0.0 , 0.0 , 

124.0 , 4126.15384615 , 4360.0 , 3860.51282051 , 4192.30769231 , 4180.0 , 4021.53846154 , 4478.46153846 , 4038.97435897 , 4400.51282051 , 4238.46153846 , 4324.61538462 , 4115.38461538 , 4249.23076923 , 4150.25641026 , 1680.0 , 1745.0 , 24.568 , 0.0 , 0.0 , 0.0 , 0.0 , 

125.0 , 4104.1025641 , 4355.38461538 , 3853.84615385 , 4193.84615385 , 4181.02564103 , 4041.53846154 , 4474.87179487 , 4042.56410256 , 4422.05128205 , 4237.43589744 , 4352.82051282 , 4169.74358974 , 4248.20512821 , 4149.23076923 , 1680.0 , 1745.0 , 24.575 , 0.0 , 0.0 , 0.0 , 0.0 , 

126.0 , 4070.76923077 , 4357.43589744 , 3852.82051282 , 4202.05128205 , 4186.66666667 , 4103.58974359 , 4485.64102564 , 4033.84615385 , 4381.53846154 , 4235.8974359 , 4350.25641026 , 4193.84615385 , 4197.94871795 , 4181.02564103 , 1680.0 , 1745.0 , 24.584 , 0.0 , 0.0 , 0.0 , 0.0 , 

127.0 , 4101.53846154 , 4356.41025641 , 3852.82051282 , 4194.87179487 , 4178.97435897 , 4075.8974359 , 4481.53846154 , 4036.92307692 , 4376.92307692 , 4238.46153846 , 4342.56410256 , 4174.35897436 , 4216.92307692 , 4222.05128205 , 1680.0 , 1745.0 , 24.592 , 0.0 , 0.0 , 0.0 , 0.0 , 

128.0 , 4104.61538462 , 4353.33333333 , 3852.30769231 , 4193.33333333 , 4180.51282051 , 4037.43589744 , 4478.97435897 , 4040.0 , 4419.48717949 , 4235.8974359 , 4352.82051282 , 4130.25641026 , 4248.20512821 , 4196.92307692 , 1680.0 , 1745.0 , 24.599 , 0.0 , 0.0 , 0.0 , 0.0 , 

0.0 , 4061.53846154 , 4357.43589744 , 3850.76923077 , 4201.02564103 , 4190.25641026 , 4053.84615385 , 4490.25641026 , 4037.94871795 , 4418.46153846 , 4232.30769231 , 4342.05128205 , 4133.33333333 , 4216.92307692 , 4162.56410256 , 1681.0 , 1744.0 , 24.608 , 0.0 , 0.0 , 0.0 , 0.0 , 

1.0 , 4076.41025641 , 4358.46153846 , 3847.17948718 , 4193.84615385 , 4183.07692308 , 4072.30769231 , 4485.12820513 , 4040.51282051 , 4403.58974359 , 4234.35897436 , 4338.46153846 , 4165.64102564 , 4213.33333333 , 4147.69230769 , 1681.0 , 1745.0 , 24.615 , 0.0 , 0.0 , 0.0 , 0.0 , 

2.0 , 4108.71794872 , 4356.92307692 , 3855.8974359 , 4189.23076923 , 4181.02564103 , 4102.05128205 , 4478.97435897 , 4038.46153846 , 4396.41025641 , 4235.38461538 , 4352.30769231 , 4154.87179487 , 4227.69230769 , 4162.05128205 , 1680.0 , 1744.0 , 24.622 , 0.0 , 0.0 , 0.0 , 0.0 , 

3.0 , 4091.28205128 , 4354.87179487 , 3852.30769231 , 4194.35897436 , 4183.58974359 , 4107.69230769 , 4481.53846154 , 4034.87179487 , 4392.30769231 , 4236.41025641 , 4346.15384615 , 4148.71794872 , 4223.58974359 , 4211.28205128 , 1680.0 , 1745.0 , 24.63 , 0.0 , 0.0 , 0.0 , 0.0 , 

4.0 , 4073.33333333 , 4357.43589744 , 3848.71794872 , 4201.02564103 , 4182.56410256 , 4053.84615385 , 4488.20512821 , 4031.79487179 , 4386.15384615 , 4233.84615385 , 4334.35897436 , 4161.02564103 , 4212.82051282 , 4200.0 , 1681.0 , 1744.0 , 24.639 , 0.0 , 0.0 , 0.0 , 0.0 , 

5.0 , 4098.97435897 , 4362.56410256 , 3858.46153846 , 4198.46153846 , 4178.97435897 , 4000.51282051 , 4486.15384615 , 4036.41025641 , 4389.74358974 , 4234.87179487 , 4335.38461538 , 4155.38461538 , 4208.20512821 , 4162.56410256 , 1680.0 , 1746.0 , 24.646 , 0.0 , 0.0 , 0.0 , 0.0 , 

6.0 , 4118.97435897 , 4359.48717949 , 3851.28205128 , 4188.20512821 , 4175.38461538 , 4038.97435897 , 4474.35897436 , 4051.28205128 , 4413.84615385 , 4241.53846154 , 4346.66666667 , 4155.8974359 , 4218.46153846 , 4164.61538462 , 1680.0 , 1744.0 , 24.654 , 0.0 , 0.0 , 0.0 , 0.0 , 

7.0 , 4100.0 , 4357.94871795 , 3850.25641026 , 4192.82051282 , 4184.61538462 , 4117.94871795 , 4480.51282051 , 4047.17948718 , 4421.53846154 , 4238.46153846 , 4354.87179487 , 4161.53846154 , 4235.38461538 , 4176.41025641 , 1680.0 , 1745.0 , 24.662 , 0.0 , 0.0 , 0.0 , 0.0 , 

8.0 , 4079.48717949 , 4357.94871795 , 3850.76923077 , 4196.41025641 , 4186.15384615 , 4102.56410256 , 4485.12820513 , 4035.38461538 , 4400.0 , 4232.82051282 , 4345.64102564 , 4162.05128205 , 4228.71794872 , 4190.76923077 , 1681.0 , 1745.0 , 24.669 , 0.0 , 0.0 , 0.0 , 0.0 , 

9.0 , 4080.0 , 4361.53846154 , 3847.69230769 , 4191.79487179 , 4180.51282051 , 4060.0 , 4483.07692308 , 4038.97435897 , 4395.8974359 , 4235.38461538 , 4345.64102564 , 4163.07692308 , 4221.02564103 , 4188.71794872 , 1680.0 , 1744.0 , 24.677 , 0.0 , 0.0 , 0.0 , 0.0 , 

10.0 , 4111.79487179 , 4361.53846154 , 3861.02564103 , 4194.87179487 , 4181.02564103 , 4060.0 , 4484.1025641 , 4043.58974359 , 4406.66666667 , 4238.97435897 , 4350.25641026 , 4155.38461538 , 4224.1025641 , 4176.92307692 , 1680.0 , 1745.0 , 24.686 , 0.0 , 0.0 , 0.0 , 0.0 , 

11.0 , 4124.1025641 , 4354.87179487 , 3856.92307692 , 4194.35897436 , 4178.97435897 , 4054.35897436 , 4476.92307692 , 4044.61538462 , 4413.84615385 , 4241.02564103 , 4351.28205128 , 4156.41025641 , 4231.28205128 , 4181.02564103 , 1681.0 , 1744.0 , 24.693 , 0.0 , 0.0 , 0.0 , 0.0 , 

12.0 , 4084.1025641 , 4362.05128205 , 3848.20512821 , 4197.43589744 , 4184.1025641 , 4068.71794872 , 4481.53846154 , 4036.92307692 , 4413.33333333 , 4236.41025641 , 4355.38461538 , 4166.66666667 , 4237.43589744 , 4187.17948718 , 1680.0 , 1745.0 , 24.701 , 0.0 , 0.0 , 0.0 , 0.0 , 

13.0 , 4076.41025641 , 4362.56410256 , 3851.79487179 , 4200.51282051 , 4183.07692308 , 4083.07692308 , 4485.64102564 , 4035.38461538 , 4401.53846154 , 4233.84615385 , 4345.12820513 , 4167.17948718 , 4224.1025641 , 4184.1025641 , 1680.0 , 1745.0 , 24.709 , 0.0 , 0.0 , 0.0 , 0.0 , 

14.0 , 4100.51282051 , 4356.41025641 , 3849.23076923 , 4194.35897436 , 4179.48717949 , 4076.41025641 , 4481.53846154 , 4043.07692308 , 4406.15384615 , 4238.46153846 , 4340.0 , 4165.12820513 , 4216.41025641 , 4173.84615385 , 1680.0 , 1745.0 , 24.716 , 0.0 , 0.0 , 0.0 , 0.0 , 

15.0 , 4098.97435897 , 4360.0 , 3853.84615385 , 4194.87179487 , 4184.61538462 , 4078.97435897 , 4485.12820513 , 4040.0 , 4413.33333333 , 4237.94871795 , 4347.69230769 , 4158.97435897 , 4219.48717949 , 4162.56410256 , 1680.0 , 1744.0 , 24.724 , 0.0 , 0.0 , 0.0 , 0.0 , 

16.0 , 4087.69230769 , 4358.97435897 , 3852.30769231 , 4194.35897436 , 4180.51282051 , 4082.05128205 , 4480.51282051 , 4038.97435897 , 4406.66666667 , 4236.41025641 , 4348.20512821 , 4163.07692308 , 4218.97435897 , 4168.71794872 , 1680.0 , 1745.0 , 24.732 , 0.0 , 0.0 , 0.0 , 0.0 , 

17.0 , 4090.76923077 , 4358.46153846 , 3851.79487179 , 4194.35897436 , 4180.0 , 4075.38461538 , 4482.05128205 , 4036.92307692 , 4404.61538462 , 4235.38461538 , 4346.66666667 , 4172.82051282 , 4222.56410256 , 4172.82051282 , 1681.0 , 1745.0 , 24.741 , 0.0 , 0.0 , 0.0 , 0.0 , 

18.0 , 4106.15384615 , 4358.46153846 , 3852.30769231 , 4195.8974359 , 4182.56410256 , 4071.28205128 , 4483.58974359 , 4033.84615385 , 4401.02564103 , 4236.41025641 , 4347.17948718 , 4168.71794872 , 4223.07692308 , 4162.56410256 , 1680.0 , 1744.0 , 24.748 , 0.0 , 0.0 , 0.0 , 0.0 , 

19.0 , 4103.58974359 , 4355.38461538 , 3846.66666667 , 4193.33333333 , 4180.51282051 , 4061.53846154 , 4477.94871795 , 4035.8974359 , 4411.28205128 , 4242.56410256 , 4352.30769231 , 4171.79487179 , 4230.76923077 , 4171.79487179 , 1680.0 , 1745.0 , 24.756 , 0.0 , 0.0 , 0.0 , 0.0 , 

20.0 , 4081.53846154 , 4355.8974359 , 3853.84615385 , 4197.43589744 , 4186.15384615 , 4057.43589744 , 4483.58974359 , 4031.79487179 , 4422.56410256 , 4236.92307692 , 4354.35897436 , 4172.82051282 , 4239.48717949 , 4178.97435897 , 1680.0 , 1744.0 , 24.764 , 0.0 , 0.0 , 0.0 , 0.0 , 

21.0 , 4069.23076923 , 4354.35897436 , 3848.71794872 , 4197.43589744 , 4186.66666667 , 4063.58974359 , 4484.61538462 , 4030.76923077 , 4406.66666667 , 4232.82051282 , 4352.82051282 , 4172.82051282 , 4231.28205128 , 4173.84615385 , 1680.0 , 1745.0 , 24.771 , 0.0 , 0.0 , 0.0 , 0.0 , 

22.0 , 4076.41025641 , 4355.8974359 , 3845.64102564 , 4196.92307692 , 4188.20512821 , 4070.25641026 , 4487.17948718 , 4035.8974359 , 4397.43589744 , 4237.43589744 , 4339.48717949 , 4177.94871795 , 4223.07692308 , 4177.43589744 , 1681.0 , 1744.0 , 24.779 , 0.0 , 0.0 , 0.0 , 0.0 , 

23.0 , 4096.41025641 , 4358.46153846 , 3857.94871795 , 4195.8974359 , 4188.20512821 , 4070.76923077 , 4486.15384615 , 4038.46153846 , 4405.12820513 , 4238.97435897 , 4348.20512821 , 4172.82051282 , 4226.66666667 , 4173.33333333 , 1679.0 , 1745.0 , 24.788 , 0.0 , 0.0 , 0.0 , 0.0 , 

24.0 , 4097.43589744 , 4352.82051282 , 3852.30769231 , 4191.28205128 , 4180.51282051 , 4050.76923077 , 4475.8974359 , 4031.79487179 , 4418.46153846 , 4235.8974359 , 4365.64102564 , 4176.92307692 , 4244.61538462 , 4172.30769231 , 1681.0 , 1745.0 , 24.794 , 0.0 , 0.0 , 0.0 , 0.0 , 

25.0 , 4058.46153846 , 4351.28205128 , 3846.66666667 , 4201.02564103 , 4187.17948718 , 4046.15384615 , 4486.66666667 , 4029.23076923 , 4416.92307692 , 4230.76923077 , 4335.38461538 , 4187.17948718 , 4249.23076923 , 4177.94871795 , 1680.0 , 1744.0 , 24.803 , 0.0 , 0.0 , 0.0 , 0.0 , 

26.0 , 4044.61538462 , 4354.87179487 , 3846.66666667 , 4201.53846154 , 4189.74358974 , 4071.28205128 , 4493.33333333 , 4033.84615385 , 4408.20512821 , 4231.79487179 , 4328.71794872 , 4185.12820513 , 4228.20512821 , 4177.43589744 , 1681.0 , 1745.0 , 24.811 , 0.0 , 0.0 , 0.0 , 0.0 , 

27.0 , 4077.94871795 , 4357.94871795 , 3847.17948718 , 4193.84615385 , 4184.1025641 , 4071.79487179 , 4483.58974359 , 4033.33333333 , 4405.64102564 , 4238.46153846 , 4353.84615385 , 4178.46153846 , 4227.69230769 , 4169.74358974 , 1680.0 , 1745.0 , 24.818 , 0.0 , 0.0 , 0.0 , 0.0 , 

28.0 , 4075.8974359 , 4352.82051282 , 3852.82051282 , 4199.48717949 , 4189.74358974 , 4058.97435897 , 4484.1025641 , 4030.76923077 , 4391.79487179 , 4235.8974359 , 4354.35897436 , 4184.61538462 , 4243.58974359 , 4156.92307692 , 1681.0 , 1744.0 , 24.826 , 0.0 , 0.0 , 0.0 , 0.0 , 

29.0 , 4047.17948718 , 4349.74358974 , 3846.66666667 , 4202.05128205 , 4191.79487179 , 4062.05128205 , 4484.1025641 , 4027.17948718 , 4391.28205128 , 4229.23076923 , 4350.25641026 , 4182.05128205 , 4241.53846154 , 4164.1025641 , 1680.0 , 1744.0 , 24.833 , 0.0 , 0.0 , 0.0 , 0.0 , 

30.0 , 4064.61538462 , 4361.53846154 , 3847.17948718 , 4201.53846154 , 4188.20512821 , 4065.64102564 , 4486.66666667 , 4030.25641026 , 4404.1025641 , 4232.82051282 , 4336.41025641 , 4163.58974359 , 4222.05128205 , 4177.43589744 , 1681.0 , 1745.0 , 24.842 , 0.0 , 0.0 , 0.0 , 0.0 , 

31.0 , 4110.25641026 , 4364.61538462 , 3854.87179487 , 4196.92307692 , 4180.51282051 , 4059.48717949 , 4481.02564103 , 4034.35897436 , 4429.23076923 , 4237.94871795 , 4362.56410256 , 4175.38461538 , 4255.8974359 , 4174.35897436 , 1680.0 , 1744.0 , 24.849 , 0.0 , 0.0 , 0.0 , 0.0 , 

32.0 , 4113.33333333 , 4358.97435897 , 3855.38461538 , 4193.84615385 , 4180.0 , 4045.64102564 , 4475.38461538 , 4027.69230769 , 4419.48717949 , 4232.30769231 , 4365.64102564 , 4179.48717949 , 4262.05128205 , 4157.43589744 , 1680.0 , 1746.0 , 24.858 , 0.0 , 0.0 , 0.0 , 0.0 , 

33.0 , 4079.48717949 , 4358.97435897 , 3851.79487179 , 4204.1025641 , 4189.74358974 , 4049.23076923 , 4485.64102564 , 4030.25641026 , 4363.58974359 , 4228.71794872 , 4302.56410256 , 4166.66666667 , 4187.17948718 , 4176.41025641 , 1681.0 , 1744.0 , 24.865 , 0.0 , 0.0 , 0.0 , 0.0 , 

34.0 , 4081.02564103 , 4358.46153846 , 3843.58974359 , 4202.05128205 , 4184.61538462 , 4061.02564103 , 4483.07692308 , 4031.28205128 , 4367.17948718 , 4230.76923077 , 4307.69230769 , 4174.35897436 , 4192.82051282 , 4203.07692308 , 1680.0 , 1745.0 , 24.874 , 0.0 , 0.0 , 0.0 , 0.0 , 

35.0 , 4111.79487179 , 4360.51282051 , 3851.79487179 , 4193.84615385 , 4180.0 , 4051.79487179 , 4480.0 , 4029.74358974 , 4418.46153846 , 4233.33333333 , 4372.30769231 , 4170.25641026 , 4266.66666667 , 4172.82051282 , 1680.0 , 1745.0 , 24.88 , 0.0 , 0.0 , 0.0 , 0.0 , 

36.0 , 4101.02564103 , 4360.0 , 3853.84615385 , 4196.92307692 , 4183.58974359 , 4044.61538462 , 4485.12820513 , 4036.41025641 , 4447.17948718 , 4234.87179487 , 4396.41025641 , 4176.41025641 , 4295.8974359 , 4153.33333333 , 1680.0 , 1744.0 , 24.888 , 0.0 , 0.0 , 0.0 , 0.0 , 

37.0 , 4077.43589744 , 4355.38461538 , 3844.61538462 , 4199.48717949 , 4184.61538462 , 4063.58974359 , 4485.64102564 , 4037.94871795 , 4410.76923077 , 4233.84615385 , 4341.53846154 , 4170.76923077 , 4228.71794872 , 4150.25641026 , 1681.0 , 1745.0 , 24.897 , 0.0 , 0.0 , 0.0 , 0.0 , 

38.0 , 4098.46153846 , 4360.51282051 , 3850.76923077 , 4198.46153846 , 4184.1025641 , 4061.02564103 , 4483.58974359 , 4033.84615385 , 4344.61538462 , 4234.87179487 , 4280.0 , 4155.8974359 , 4155.8974359 , 4164.1025641 , 1680.0 , 1745.0 , 24.905 , 0.0 , 0.0 , 0.0 , 0.0 , 

39.0 , 4129.23076923 , 4362.56410256 , 3850.76923077 , 4192.30769231 , 4177.43589744 , 4027.17948718 , 4472.82051282 , 4030.25641026 , 4364.1025641 , 4234.35897436 , 4324.61538462 , 4173.33333333 , 4212.82051282 , 4205.64102564 , 1681.0 , 1745.0 , 24.913 , 0.0 , 0.0 , 0.0 , 0.0 , 

40.0 , 4104.1025641 , 4355.8974359 , 3848.71794872 , 4192.30769231 , 4181.02564103 , 4051.79487179 , 4474.35897436 , 4028.71794872 , 4421.53846154 , 4230.76923077 , 4373.33333333 , 4170.76923077 , 4270.25641026 , 4192.82051282 , 1681.0 , 1744.0 , 24.92 , 0.0 , 0.0 , 0.0 , 0.0 , 

41.0 , 4067.17948718 , 4352.30769231 , 3848.71794872 , 4197.43589744 , 4187.17948718 , 4081.02564103 , 4481.02564103 , 4034.35897436 , 4445.12820513 , 4233.84615385 , 4370.25641026 , 4169.74358974 , 4270.25641026 , 4165.12820513 , 1681.0 , 1746.0 , 24.927 , 0.0 , 0.0 , 0.0 , 0.0 , 

