['COUNTER', 'AF3', 'F7', 'F3', 'FC5', 'T7', 'P7', 'O1', 'O2', 'P8', 'T8', 'FC6', 'F4', 'F8', 'AF4', 'GYROX', 'GYROY', 'TIMESTAMP', 'FUNC_ID', 'FUNC_VALUE', 'MARKER', 'SYNC_SIGNAL']
54.0 , 4330.76923077 , 3952.82051282 , 4383.07692308 , 3685.12820513 , 4383.07692308 , 4648.20512821 , 4630.25641026 , 4549.74358974 , 4022.56410256 , 4098.97435897 , 4482.56410256 , 4408.71794872 , 4196.41025641 , 3936.92307692 , 1730.0 , 1682.0 , 3.475 , 0.0 , 0.0 , 0.0 , 0.0 , 

55.0 , 4327.69230769 , 3947.17948718 , 4382.56410256 , 3677.94871795 , 4384.1025641 , 4652.82051282 , 4631.28205128 , 4538.46153846 , 4022.56410256 , 4100.0 , 4457.43589744 , 4395.8974359 , 4176.92307692 , 3914.35897436 , 1731.0 , 1681.0 , 3.484 , 0.0 , 0.0 , 0.0 , 0.0 , 

56.0 , 4325.12820513 , 3944.61538462 , 4381.53846154 , 3671.28205128 , 4383.07692308 , 4652.82051282 , 4631.79487179 , 4532.82051282 , 4022.56410256 , 4099.48717949 , 4468.71794872 , 4397.43589744 , 4211.28205128 , 3917.43589744 , 1730.0 , 1683.0 , 3.493 , 0.0 , 0.0 , 0.0 , 0.0 , 

57.0 , 4331.79487179 , 3945.12820513 , 4387.17948718 , 3674.87179487 , 4382.56410256 , 4643.58974359 , 4632.82051282 , 4540.51282051 , 4022.56410256 , 4099.48717949 , 4491.79487179 , 4411.79487179 , 4222.56410256 , 3943.58974359 , 1731.0 , 1683.0 , 3.504 , 0.0 , 0.0 , 0.0 , 0.0 , 

58.0 , 4337.43589744 , 3949.23076923 , 4393.33333333 , 3682.05128205 , 4383.07692308 , 4640.0 , 4632.82051282 , 4543.58974359 , 4022.56410256 , 4099.48717949 , 4479.48717949 , 4414.35897436 , 4194.87179487 , 3947.69230769 , 1730.0 , 1684.0 , 3.507 , 0.0 , 0.0 , 0.0 , 0.0 , 

59.0 , 4333.33333333 , 3953.84615385 , 4389.74358974 , 3685.12820513 , 4383.07692308 , 4646.15384615 , 4634.35897436 , 4543.58974359 , 4022.56410256 , 4099.48717949 , 4469.23076923 , 4407.69230769 , 4193.84615385 , 3940.0 , 1730.0 , 1684.0 , 3.518 , 0.0 , 0.0 , 0.0 , 0.0 , 

60.0 , 4328.71794872 , 3950.25641026 , 4382.56410256 , 3681.02564103 , 4383.07692308 , 4646.66666667 , 4631.79487179 , 4540.51282051 , 4022.56410256 , 4099.48717949 , 4473.84615385 , 4404.1025641 , 4206.66666667 , 3944.61538462 , 1729.0 , 1683.0 , 3.523 , 0.0 , 0.0 , 0.0 , 0.0 , 

61.0 , 4328.20512821 , 3940.51282051 , 4381.53846154 , 3676.41025641 , 4383.58974359 , 4639.48717949 , 4625.12820513 , 4527.17948718 , 4022.05128205 , 4099.48717949 , 4478.97435897 , 4400.0 , 4207.17948718 , 3940.0 , 1728.0 , 1685.0 , 3.53 , 0.0 , 0.0 , 0.0 , 0.0 , 

62.0 , 4331.79487179 , 3943.58974359 , 4386.15384615 , 3680.0 , 4384.1025641 , 4641.53846154 , 4627.17948718 , 4523.58974359 , 4022.05128205 , 4099.48717949 , 4484.1025641 , 4398.46153846 , 4215.38461538 , 3932.30769231 , 1729.0 , 1684.0 , 3.548 , 0.0 , 0.0 , 0.0 , 0.0 , 

63.0 , 4335.8974359 , 3952.82051282 , 4388.20512821 , 3684.61538462 , 4383.58974359 , 4648.20512821 , 4632.30769231 , 4534.87179487 , 4023.07692308 , 4099.48717949 , 4484.1025641 , 4405.64102564 , 4217.94871795 , 3942.56410256 , 1728.0 , 1684.0 , 3.566 , 0.0 , 0.0 , 0.0 , 0.0 , 

64.0 , 4336.92307692 , 3951.28205128 , 4388.20512821 , 3683.58974359 , 4383.58974359 , 4644.61538462 , 4627.69230769 , 4539.48717949 , 4022.56410256 , 4099.48717949 , 4476.92307692 , 4409.23076923 , 4204.1025641 , 3946.66666667 , 1728.0 , 1684.0 , 3.569 , 0.0 , 0.0 , 0.0 , 0.0 , 

65.0 , 4331.28205128 , 3943.07692308 , 4389.74358974 , 3682.56410256 , 4384.1025641 , 4637.43589744 , 4620.51282051 , 4535.8974359 , 4021.02564103 , 4099.48717949 , 4474.35897436 , 4406.15384615 , 4195.8974359 , 3941.53846154 , 1727.0 , 1685.0 , 3.569 , 0.0 , 0.0 , 0.0 , 0.0 , 

66.0 , 4327.17948718 , 3942.56410256 , 4389.23076923 , 3682.56410256 , 4383.58974359 , 4640.51282051 , 4626.66666667 , 4538.46153846 , 4026.15384615 , 4099.48717949 , 4477.43589744 , 4404.1025641 , 4204.1025641 , 3942.05128205 , 1727.0 , 1684.0 , 3.571 , 0.0 , 0.0 , 0.0 , 0.0 , 

67.0 , 4325.64102564 , 3941.53846154 , 4383.58974359 , 3673.84615385 , 4383.58974359 , 4642.05128205 , 4627.17948718 , 4535.38461538 , 4030.76923077 , 4099.48717949 , 4471.79487179 , 4400.51282051 , 4206.66666667 , 3935.38461538 , 1727.0 , 1683.0 , 3.589 , 0.0 , 0.0 , 0.0 , 0.0 , 

68.0 , 4320.0 , 3932.82051282 , 4380.51282051 , 3665.64102564 , 4384.1025641 , 4638.46153846 , 4616.92307692 , 4523.58974359 , 4025.12820513 , 4099.48717949 , 4464.1025641 , 4393.33333333 , 4186.66666667 , 3923.07692308 , 1727.0 , 1683.0 , 3.59 , 0.0 , 0.0 , 0.0 , 0.0 , 

69.0 , 4320.51282051 , 3933.33333333 , 4383.07692308 , 3672.30769231 , 4384.1025641 , 4643.58974359 , 4622.05128205 , 4526.15384615 , 4020.0 , 4099.48717949 , 4467.17948718 , 4392.82051282 , 4176.41025641 , 3925.12820513 , 1725.0 , 1682.0 , 3.594 , 0.0 , 0.0 , 0.0 , 0.0 , 

70.0 , 4330.25641026 , 3942.56410256 , 4385.64102564 , 3682.56410256 , 4383.58974359 , 4644.61538462 , 4629.74358974 , 4533.33333333 , 4022.05128205 , 4099.48717949 , 4473.84615385 , 4397.43589744 , 4190.76923077 , 3932.30769231 , 1726.0 , 1682.0 , 3.601 , 0.0 , 0.0 , 0.0 , 0.0 , 

71.0 , 4335.8974359 , 3951.28205128 , 4391.79487179 , 3683.58974359 , 4383.58974359 , 4634.35897436 , 4620.51282051 , 4531.28205128 , 4022.56410256 , 4098.97435897 , 4477.43589744 , 4402.56410256 , 4206.66666667 , 3940.0 , 1725.0 , 1681.0 , 3.608 , 0.0 , 0.0 , 0.0 , 0.0 , 

72.0 , 4335.8974359 , 3957.94871795 , 4396.92307692 , 3685.12820513 , 4384.1025641 , 4633.84615385 , 4612.82051282 , 4532.82051282 , 4021.02564103 , 4099.48717949 , 4484.1025641 , 4410.76923077 , 4217.94871795 , 3954.35897436 , 1724.0 , 1681.0 , 3.617 , 0.0 , 0.0 , 0.0 , 0.0 , 

73.0 , 4335.38461538 , 3950.25641026 , 4392.82051282 , 3682.56410256 , 4383.07692308 , 4645.64102564 , 4620.51282051 , 4540.51282051 , 4021.53846154 , 4100.0 , 4491.79487179 , 4412.30769231 , 4222.56410256 , 3956.92307692 , 1725.0 , 1679.0 , 3.625 , 0.0 , 0.0 , 0.0 , 0.0 , 

74.0 , 4331.28205128 , 3937.43589744 , 4387.17948718 , 3673.33333333 , 4382.05128205 , 4646.15384615 , 4622.05128205 , 4541.02564103 , 4021.53846154 , 4098.97435897 , 4488.71794872 , 4407.69230769 , 4212.82051282 , 3944.61538462 , 1724.0 , 1680.0 , 3.633 , 0.0 , 0.0 , 0.0 , 0.0 , 

75.0 , 4334.35897436 , 3944.1025641 , 4391.28205128 , 3677.94871795 , 4383.58974359 , 4633.84615385 , 4614.87179487 , 4535.38461538 , 4021.02564103 , 4100.0 , 4487.17948718 , 4410.25641026 , 4207.17948718 , 3947.69230769 , 1725.0 , 1679.0 , 3.642 , 0.0 , 0.0 , 0.0 , 0.0 , 

76.0 , 4343.07692308 , 3953.33333333 , 4396.92307692 , 3687.17948718 , 4384.1025641 , 4635.38461538 , 4621.02564103 , 4543.58974359 , 4021.53846154 , 4104.1025641 , 4490.76923077 , 4416.92307692 , 4224.1025641 , 3961.02564103 , 1724.0 , 1680.0 , 3.649 , 0.0 , 0.0 , 0.0 , 0.0 , 

77.0 , 4341.02564103 , 3944.61538462 , 4397.43589744 , 3681.53846154 , 4382.56410256 , 4646.66666667 , 4632.82051282 , 4552.82051282 , 4021.53846154 , 4105.12820513 , 4493.33333333 , 4415.8974359 , 4237.94871795 , 3960.0 , 1724.0 , 1681.0 , 3.655 , 0.0 , 0.0 , 0.0 , 0.0 , 

78.0 , 4341.53846154 , 3949.74358974 , 4397.94871795 , 3683.07692308 , 4383.58974359 , 4644.61538462 , 4633.33333333 , 4545.64102564 , 4021.53846154 , 4103.58974359 , 4493.33333333 , 4412.82051282 , 4225.64102564 , 3956.41025641 , 1723.0 , 1680.0 , 3.663 , 0.0 , 0.0 , 0.0 , 0.0 , 

79.0 , 4350.25641026 , 3972.82051282 , 4398.46153846 , 3693.33333333 , 4384.1025641 , 4634.87179487 , 4622.56410256 , 4532.30769231 , 4021.53846154 , 4103.58974359 , 4479.48717949 , 4412.30769231 , 4212.30769231 , 3957.43589744 , 1723.0 , 1681.0 , 3.673 , 0.0 , 0.0 , 0.0 , 0.0 , 

80.0 , 4352.82051282 , 3975.8974359 , 4395.8974359 , 3691.79487179 , 4383.07692308 , 4639.48717949 , 4621.02564103 , 4532.30769231 , 4021.02564103 , 4104.1025641 , 4467.17948718 , 4410.25641026 , 4212.30769231 , 3946.66666667 , 1723.0 , 1679.0 , 3.68 , 0.0 , 0.0 , 0.0 , 0.0 , 

81.0 , 4351.28205128 , 3961.53846154 , 4396.41025641 , 3691.79487179 , 4383.58974359 , 4654.35897436 , 4632.82051282 , 4546.15384615 , 4021.53846154 , 4102.56410256 , 4480.0 , 4413.33333333 , 4211.28205128 , 3945.64102564 , 1723.0 , 1680.0 , 3.688 , 0.0 , 0.0 , 0.0 , 0.0 , 

82.0 , 4350.76923077 , 3959.48717949 , 4397.94871795 , 3695.38461538 , 4384.1025641 , 4655.8974359 , 4636.92307692 , 4551.79487179 , 4021.02564103 , 4102.56410256 , 4492.82051282 , 4415.8974359 , 4201.02564103 , 3956.41025641 , 1722.0 , 1680.0 , 3.695 , 0.0 , 0.0 , 0.0 , 0.0 , 

83.0 , 4346.15384615 , 3962.05128205 , 4395.8974359 , 3687.17948718 , 4383.07692308 , 4647.69230769 , 4628.20512821 , 4541.53846154 , 4019.48717949 , 4103.07692308 , 4480.0 , 4409.23076923 , 4200.0 , 3948.71794872 , 1723.0 , 1679.0 , 3.706 , 0.0 , 0.0 , 0.0 , 0.0 , 

84.0 , 4340.0 , 3958.97435897 , 4393.84615385 , 3680.51282051 , 4382.56410256 , 4647.17948718 , 4623.07692308 , 4531.79487179 , 4020.0 , 4102.56410256 , 4467.17948718 , 4406.66666667 , 4203.58974359 , 3937.94871795 , 1722.0 , 1679.0 , 3.711 , 0.0 , 0.0 , 0.0 , 0.0 , 

85.0 , 4340.51282051 , 3960.0 , 4396.92307692 , 3683.58974359 , 4383.07692308 , 4651.79487179 , 4626.66666667 , 4536.41025641 , 4022.05128205 , 4103.07692308 , 4471.79487179 , 4413.84615385 , 4194.87179487 , 3947.69230769 , 1723.0 , 1678.0 , 3.719 , 0.0 , 0.0 , 0.0 , 0.0 , 

86.0 , 4346.66666667 , 3962.05128205 , 4399.48717949 , 3684.61538462 , 4383.07692308 , 4647.69230769 , 4627.69230769 , 4542.05128205 , 4023.07692308 , 4103.07692308 , 4477.43589744 , 4417.43589744 , 4198.46153846 , 3958.46153846 , 1723.0 , 1678.0 , 3.727 , 0.0 , 0.0 , 0.0 , 0.0 , 

87.0 , 4344.61538462 , 3958.46153846 , 4397.43589744 , 3682.05128205 , 4383.07692308 , 4642.56410256 , 4623.58974359 , 4535.8974359 , 4022.05128205 , 4103.07692308 , 4477.43589744 , 4412.30769231 , 4216.41025641 , 3959.48717949 , 1724.0 , 1677.0 , 3.735 , 0.0 , 0.0 , 0.0 , 0.0 , 

88.0 , 4336.41025641 , 3955.38461538 , 4394.87179487 , 3681.53846154 , 4383.07692308 , 4641.53846154 , 4619.48717949 , 4533.33333333 , 4020.51282051 , 4103.07692308 , 4477.43589744 , 4404.61538462 , 4221.02564103 , 3956.41025641 , 1724.0 , 1678.0 , 3.742 , 0.0 , 0.0 , 0.0 , 0.0 , 

89.0 , 4337.43589744 , 3962.56410256 , 4396.41025641 , 3682.56410256 , 4382.56410256 , 4636.92307692 , 4615.8974359 , 4536.41025641 , 4020.51282051 , 4103.07692308 , 4478.46153846 , 4404.1025641 , 4214.87179487 , 3950.25641026 , 1724.0 , 1677.0 , 3.751 , 0.0 , 0.0 , 0.0 , 0.0 , 

90.0 , 4343.07692308 , 3965.12820513 , 4399.48717949 , 3684.1025641 , 4384.1025641 , 4635.38461538 , 4617.43589744 , 4537.94871795 , 4021.53846154 , 4103.07692308 , 4477.94871795 , 4407.69230769 , 4214.87179487 , 3952.30769231 , 1725.0 , 1676.0 , 3.758 , 0.0 , 0.0 , 0.0 , 0.0 , 

91.0 , 4344.1025641 , 3960.0 , 4398.46153846 , 3684.1025641 , 4384.61538462 , 4644.1025641 , 4622.56410256 , 4537.94871795 , 4021.53846154 , 4103.07692308 , 4476.41025641 , 4407.17948718 , 4217.94871795 , 3956.41025641 , 1724.0 , 1676.0 , 3.767 , 0.0 , 0.0 , 0.0 , 0.0 , 

92.0 , 4341.53846154 , 3958.97435897 , 4396.41025641 , 3685.12820513 , 4383.58974359 , 4646.15384615 , 4626.66666667 , 4539.48717949 , 4022.05128205 , 4103.07692308 , 4475.38461538 , 4402.56410256 , 4213.33333333 , 3948.20512821 , 1727.0 , 1675.0 , 3.774 , 0.0 , 0.0 , 0.0 , 0.0 , 

93.0 , 4337.94871795 , 3960.51282051 , 4397.94871795 , 3685.64102564 , 4383.07692308 , 4643.07692308 , 4630.76923077 , 4544.1025641 , 4022.56410256 , 4103.07692308 , 4470.25641026 , 4406.66666667 , 4207.69230769 , 3941.53846154 , 1725.0 , 1678.0 , 3.781 , 0.0 , 0.0 , 0.0 , 0.0 , 

94.0 , 4333.84615385 , 3957.43589744 , 4397.43589744 , 3681.02564103 , 4384.1025641 , 4643.58974359 , 4633.33333333 , 4546.15384615 , 4022.05128205 , 4103.07692308 , 4467.17948718 , 4410.76923077 , 4200.0 , 3943.58974359 , 1726.0 , 1679.0 , 3.789 , 0.0 , 0.0 , 0.0 , 0.0 , 

95.0 , 4334.35897436 , 3956.41025641 , 4393.84615385 , 3680.0 , 4383.07692308 , 4643.07692308 , 4634.35897436 , 4544.1025641 , 4022.05128205 , 4103.07692308 , 4471.28205128 , 4406.15384615 , 4199.48717949 , 3943.58974359 , 1724.0 , 1679.0 , 3.797 , 0.0 , 0.0 , 0.0 , 0.0 , 

96.0 , 4336.92307692 , 3960.0 , 4394.87179487 , 3684.1025641 , 4381.53846154 , 4638.46153846 , 4632.82051282 , 4541.02564103 , 4022.56410256 , 4103.07692308 , 4475.38461538 , 4404.61538462 , 4208.71794872 , 3944.61538462 , 1726.0 , 1680.0 , 3.805 , 0.0 , 0.0 , 0.0 , 0.0 , 

97.0 , 4333.33333333 , 3958.97435897 , 4395.8974359 , 3678.97435897 , 4381.53846154 , 4643.07692308 , 4632.82051282 , 4539.48717949 , 4022.56410256 , 4103.07692308 , 4475.8974359 , 4404.61538462 , 4209.23076923 , 3944.1025641 , 1724.0 , 1680.0 , 3.813 , 0.0 , 0.0 , 0.0 , 0.0 , 

98.0 , 4327.69230769 , 3955.38461538 , 4389.23076923 , 3670.76923077 , 4382.05128205 , 4653.84615385 , 4636.92307692 , 4537.43589744 , 4021.53846154 , 4103.07692308 , 4470.25641026 , 4398.46153846 , 4196.41025641 , 3937.94871795 , 1724.0 , 1681.0 , 3.821 , 0.0 , 0.0 , 0.0 , 0.0 , 

99.0 , 4330.25641026 , 3956.41025641 , 4388.20512821 , 3674.35897436 , 4381.53846154 , 4654.35897436 , 4637.94871795 , 4536.41025641 , 4024.61538462 , 4103.07692308 , 4457.94871795 , 4393.84615385 , 4194.35897436 , 3935.38461538 , 1723.0 , 1682.0 , 3.828 , 0.0 , 0.0 , 0.0 , 0.0 , 

100.0 , 4336.92307692 , 3966.15384615 , 4395.8974359 , 3686.15384615 , 4381.53846154 , 4647.69230769 , 4639.48717949 , 4540.0 , 4031.28205128 , 4103.07692308 , 4461.02564103 , 4398.46153846 , 4209.23076923 , 3943.58974359 , 1723.0 , 1682.0 , 3.835 , 0.0 , 0.0 , 0.0 , 0.0 , 

101.0 , 4334.87179487 , 3969.74358974 , 4397.94871795 , 3687.17948718 , 4381.53846154 , 4648.20512821 , 4641.02564103 , 4543.07692308 , 4030.76923077 , 4103.07692308 , 4477.94871795 , 4401.53846154 , 4212.82051282 , 3945.12820513 , 1724.0 , 1680.0 , 3.844 , 0.0 , 0.0 , 0.0 , 0.0 , 

102.0 , 4326.15384615 , 3959.48717949 , 4389.23076923 , 3677.94871795 , 4381.02564103 , 4650.76923077 , 4635.8974359 , 4540.51282051 , 4023.07692308 , 4103.07692308 , 4475.38461538 , 4394.35897436 , 4196.41025641 , 3931.28205128 , 1723.0 , 1682.0 , 3.852 , 0.0 , 0.0 , 0.0 , 0.0 , 

103.0 , 4326.66666667 , 3960.0 , 4383.58974359 , 3673.84615385 , 4382.56410256 , 4646.15384615 , 4628.71794872 , 4535.8974359 , 4020.51282051 , 4103.07692308 , 4457.94871795 , 4391.28205128 , 4183.58974359 , 3923.07692308 , 1726.0 , 1680.0 , 3.859 , 0.0 , 0.0 , 0.0 , 0.0 , 

104.0 , 4333.84615385 , 3973.84615385 , 4390.25641026 , 3674.87179487 , 4384.1025641 , 4644.1025641 , 4632.82051282 , 4536.41025641 , 4021.53846154 , 4103.07692308 , 4455.8974359 , 4394.87179487 , 4189.74358974 , 3932.82051282 , 1724.0 , 1681.0 , 3.867 , 0.0 , 0.0 , 0.0 , 0.0 , 

105.0 , 4336.41025641 , 3977.94871795 , 4396.41025641 , 3678.46153846 , 4383.07692308 , 4647.17948718 , 4636.92307692 , 4539.48717949 , 4021.02564103 , 4103.07692308 , 4470.76923077 , 4402.05128205 , 4202.56410256 , 3942.05128205 , 1726.0 , 1680.0 , 3.874 , 0.0 , 0.0 , 0.0 , 0.0 , 

106.0 , 4333.33333333 , 3979.48717949 , 4395.38461538 , 3682.05128205 , 4383.58974359 , 4649.23076923 , 4633.84615385 , 4541.02564103 , 4021.53846154 , 4103.07692308 , 4479.48717949 , 4409.74358974 , 4203.58974359 , 3943.07692308 , 1725.0 , 1679.0 , 3.883 , 0.0 , 0.0 , 0.0 , 0.0 , 

107.0 , 4336.92307692 , 3989.23076923 , 4395.38461538 , 3686.66666667 , 4385.12820513 , 4648.71794872 , 4634.35897436 , 4545.64102564 , 4022.56410256 , 4103.07692308 , 4472.82051282 , 4412.30769231 , 4204.61538462 , 3947.69230769 , 1726.0 , 1679.0 , 3.891 , 0.0 , 0.0 , 0.0 , 0.0 , 

108.0 , 4342.56410256 , 3992.30769231 , 4398.97435897 , 3689.23076923 , 4383.07692308 , 4648.71794872 , 4635.8974359 , 4548.20512821 , 4022.56410256 , 4103.07692308 , 4476.92307692 , 4412.30769231 , 4215.8974359 , 3952.82051282 , 1725.0 , 1678.0 , 3.899 , 0.0 , 0.0 , 0.0 , 0.0 , 

109.0 , 4339.48717949 , 3988.20512821 , 4397.43589744 , 3686.15384615 , 4381.53846154 , 4649.74358974 , 4631.79487179 , 4541.53846154 , 4022.05128205 , 4103.07692308 , 4490.76923077 , 4413.33333333 , 4218.46153846 , 3953.84615385 , 1726.0 , 1679.0 , 3.909 , 0.0 , 0.0 , 0.0 , 0.0 , 

110.0 , 4335.38461538 , 3989.23076923 , 4394.87179487 , 3686.15384615 , 4382.56410256 , 4650.25641026 , 4630.25641026 , 4537.94871795 , 4022.56410256 , 4103.07692308 , 4484.1025641 , 4413.33333333 , 4204.61538462 , 3953.33333333 , 1725.0 , 1677.0 , 3.913 , 0.0 , 0.0 , 0.0 , 0.0 , 

111.0 , 4336.41025641 , 3992.82051282 , 4395.8974359 , 3688.71794872 , 4383.58974359 , 4648.71794872 , 4630.76923077 , 4541.02564103 , 4022.56410256 , 4103.07692308 , 4470.76923077 , 4411.28205128 , 4198.97435897 , 3949.74358974 , 1725.0 , 1678.0 , 3.921 , 0.0 , 0.0 , 0.0 , 0.0 , 

112.0 , 4336.41025641 , 3990.76923077 , 4395.38461538 , 3687.69230769 , 4382.56410256 , 4644.61538462 , 4626.15384615 , 4537.43589744 , 4022.56410256 , 4103.07692308 , 4475.8974359 , 4410.76923077 , 4203.07692308 , 3943.58974359 , 1725.0 , 1676.0 , 3.93 , 0.0 , 0.0 , 0.0 , 0.0 , 

113.0 , 4335.8974359 , 3985.12820513 , 4393.84615385 , 3684.1025641 , 4382.56410256 , 4644.1025641 , 4625.12820513 , 4534.35897436 , 4022.56410256 , 4103.07692308 , 4480.0 , 4409.23076923 , 4203.58974359 , 3939.48717949 , 1724.0 , 1677.0 , 3.938 , 0.0 , 0.0 , 0.0 , 0.0 , 

114.0 , 4337.43589744 , 3987.17948718 , 4396.41025641 , 3684.61538462 , 4383.07692308 , 4647.17948718 , 4629.23076923 , 4540.0 , 4022.56410256 , 4103.07692308 , 4472.82051282 , 4408.71794872 , 4201.53846154 , 3945.12820513 , 1724.0 , 1676.0 , 3.945 , 0.0 , 0.0 , 0.0 , 0.0 , 

115.0 , 4335.38461538 , 3987.17948718 , 4396.92307692 , 3685.12820513 , 4382.05128205 , 4646.15384615 , 4623.58974359 , 4536.41025641 , 4022.56410256 , 4103.07692308 , 4469.74358974 , 4410.76923077 , 4200.51282051 , 3948.71794872 , 1723.0 , 1677.0 , 3.952 , 0.0 , 0.0 , 0.0 , 0.0 , 

116.0 , 4332.30769231 , 3977.94871795 , 4388.71794872 , 3683.07692308 , 4381.02564103 , 4643.07692308 , 4614.87179487 , 4524.61538462 , 4022.56410256 , 4103.07692308 , 4474.35897436 , 4411.28205128 , 4201.53846154 , 3944.61538462 , 1724.0 , 1676.0 , 3.96 , 0.0 , 0.0 , 0.0 , 0.0 , 

117.0 , 4335.38461538 , 3979.48717949 , 4386.66666667 , 3684.1025641 , 4381.02564103 , 4645.12820513 , 4617.43589744 , 4524.1025641 , 4022.56410256 , 4103.07692308 , 4480.51282051 , 4410.76923077 , 4209.74358974 , 3948.20512821 , 1723.0 , 1675.0 , 3.968 , 0.0 , 0.0 , 0.0 , 0.0 , 

118.0 , 4341.02564103 , 3991.79487179 , 4394.35897436 , 3683.58974359 , 4381.53846154 , 4645.12820513 , 4618.46153846 , 4526.15384615 , 4022.56410256 , 4103.07692308 , 4481.53846154 , 4411.79487179 , 4216.92307692 , 3956.41025641 , 1724.0 , 1676.0 , 3.976 , 0.0 , 0.0 , 0.0 , 0.0 , 

119.0 , 4343.07692308 , 3992.82051282 , 4397.94871795 , 3688.20512821 , 4381.02564103 , 4641.02564103 , 4618.97435897 , 4526.66666667 , 4022.05128205 , 4103.07692308 , 4476.92307692 , 4412.82051282 , 4214.35897436 , 3956.41025641 , 1724.0 , 1674.0 , 3.985 , 0.0 , 0.0 , 0.0 , 0.0 , 

120.0 , 4343.07692308 , 3988.71794872 , 4398.97435897 , 3695.38461538 , 4381.02564103 , 4643.58974359 , 4625.12820513 , 4533.33333333 , 4022.05128205 , 4103.07692308 , 4477.94871795 , 4412.82051282 , 4212.30769231 , 3955.38461538 , 1724.0 , 1675.0 , 3.992 , 0.0 , 0.0 , 0.0 , 0.0 , 

121.0 , 4342.56410256 , 3991.79487179 , 4401.02564103 , 3692.30769231 , 4381.02564103 , 4645.64102564 , 4623.07692308 , 4534.35897436 , 4022.56410256 , 4103.07692308 , 4480.0 , 4411.79487179 , 4212.30769231 , 3958.46153846 , 1725.0 , 1675.0 , 4.0 , 0.0 , 0.0 , 0.0 , 0.0 , 

122.0 , 4342.05128205 , 3984.1025641 , 4397.43589744 , 3681.02564103 , 4381.02564103 , 4644.61538462 , 4615.8974359 , 4523.58974359 , 4022.56410256 , 4103.07692308 , 4474.35897436 , 4410.76923077 , 4204.1025641 , 3953.84615385 , 1725.0 , 1676.0 , 4.007 , 0.0 , 0.0 , 0.0 , 0.0 , 

123.0 , 4341.02564103 , 3975.8974359 , 4394.35897436 , 3681.02564103 , 4381.02564103 , 4648.20512821 , 4620.51282051 , 4522.56410256 , 4021.02564103 , 4103.07692308 , 4471.79487179 , 4410.76923077 , 4202.56410256 , 3949.74358974 , 1727.0 , 1675.0 , 4.016 , 0.0 , 0.0 , 0.0 , 0.0 , 

124.0 , 4340.51282051 , 3983.07692308 , 4397.94871795 , 3687.69230769 , 4381.02564103 , 4651.79487179 , 4630.76923077 , 4533.33333333 , 4023.58974359 , 4103.07692308 , 4475.38461538 , 4411.28205128 , 4206.15384615 , 3953.84615385 , 1726.0 , 1676.0 , 4.023 , 0.0 , 0.0 , 0.0 , 0.0 , 

125.0 , 4339.48717949 , 3983.58974359 , 4397.94871795 , 3686.15384615 , 4381.53846154 , 4648.20512821 , 4632.30769231 , 4541.02564103 , 4029.23076923 , 4103.07692308 , 4474.87179487 , 4412.82051282 , 4201.02564103 , 3954.87179487 , 1727.0 , 1674.0 , 4.032 , 0.0 , 0.0 , 0.0 , 0.0 , 

126.0 , 4341.02564103 , 3982.56410256 , 4395.8974359 , 3682.05128205 , 4381.02564103 , 4646.15384615 , 4625.12820513 , 4537.43589744 , 4030.25641026 , 4103.07692308 , 4473.84615385 , 4415.8974359 , 4201.53846154 , 3956.41025641 , 1726.0 , 1675.0 , 4.038 , 0.0 , 0.0 , 0.0 , 0.0 , 

127.0 , 4343.07692308 , 3987.69230769 , 4396.41025641 , 3683.07692308 , 4381.02564103 , 4650.25641026 , 4619.48717949 , 4527.17948718 , 4028.20512821 , 4103.07692308 , 4475.38461538 , 4413.33333333 , 4209.23076923 , 3958.97435897 , 1728.0 , 1672.0 , 4.046 , 0.0 , 0.0 , 0.0 , 0.0 , 

128.0 , 4339.48717949 , 3983.07692308 , 4392.30769231 , 3685.12820513 , 4382.56410256 , 4648.71794872 , 4617.94871795 , 4523.58974359 , 4028.71794872 , 4102.56410256 , 4473.33333333 , 4402.56410256 , 4205.12820513 , 3951.28205128 , 1728.0 , 1671.0 , 4.054 , 0.0 , 0.0 , 0.0 , 0.0 , 

0.0 , 4333.33333333 , 3975.38461538 , 4387.17948718 , 3684.1025641 , 4383.07692308 , 4644.1025641 , 4619.48717949 , 4523.58974359 , 4030.25641026 , 4103.58974359 , 4471.79487179 , 4400.51282051 , 4196.92307692 , 3938.97435897 , 1728.0 , 1670.0 , 4.062 , 0.0 , 0.0 , 0.0 , 0.0 , 

1.0 , 4335.8974359 , 3981.53846154 , 4391.28205128 , 3683.58974359 , 4382.56410256 , 4645.12820513 , 4622.05128205 , 4523.58974359 , 4029.23076923 , 4102.05128205 , 4472.30769231 , 4410.25641026 , 4205.12820513 , 3946.66666667 , 1731.0 , 1668.0 , 4.071 , 0.0 , 0.0 , 0.0 , 0.0 , 

2.0 , 4344.1025641 , 3987.69230769 , 4397.43589744 , 3685.12820513 , 4382.56410256 , 4648.20512821 , 4623.58974359 , 4527.17948718 , 4028.71794872 , 4097.94871795 , 4478.97435897 , 4415.38461538 , 4219.48717949 , 3966.15384615 , 1732.0 , 1669.0 , 4.079 , 0.0 , 0.0 , 0.0 , 0.0 , 

3.0 , 4346.15384615 , 3983.07692308 , 4395.38461538 , 3685.64102564 , 4383.07692308 , 4647.69230769 , 4623.58974359 , 4532.82051282 , 4028.20512821 , 4097.43589744 , 4489.74358974 , 4412.82051282 , 4221.53846154 , 3970.25641026 , 1734.0 , 1666.0 , 4.085 , 0.0 , 0.0 , 0.0 , 0.0 , 

4.0 , 4341.53846154 , 3976.92307692 , 4389.23076923 , 3682.05128205 , 4383.07692308 , 4648.71794872 , 4626.66666667 , 4533.84615385 , 4028.71794872 , 4100.0 , 4487.17948718 , 4412.82051282 , 4214.87179487 , 3960.51282051 , 1734.0 , 1666.0 , 4.094 , 0.0 , 0.0 , 0.0 , 0.0 , 

5.0 , 4339.48717949 , 3973.84615385 , 4388.20512821 , 3679.48717949 , 4383.07692308 , 4651.28205128 , 4627.69230769 , 4526.15384615 , 4028.71794872 , 4099.48717949 , 4481.02564103 , 4413.84615385 , 4213.84615385 , 3955.8974359 , 1736.0 , 1666.0 , 4.101 , 0.0 , 0.0 , 0.0 , 0.0 , 

6.0 , 4341.02564103 , 3974.87179487 , 4391.28205128 , 3683.07692308 , 4383.07692308 , 4645.64102564 , 4623.58974359 , 4526.66666667 , 4028.71794872 , 4097.94871795 , 4486.15384615 , 4413.33333333 , 4218.46153846 , 3961.02564103 , 1736.0 , 1666.0 , 4.11 , 0.0 , 0.0 , 0.0 , 0.0 , 

7.0 , 4342.56410256 , 3976.41025641 , 4388.71794872 , 3683.58974359 , 4382.56410256 , 4642.05128205 , 4625.64102564 , 4536.41025641 , 4028.20512821 , 4098.46153846 , 4481.02564103 , 4412.30769231 , 4220.0 , 3962.05128205 , 1738.0 , 1667.0 , 4.117 , 0.0 , 0.0 , 0.0 , 0.0 , 

8.0 , 4342.05128205 , 3971.28205128 , 4385.12820513 , 3680.0 , 4383.07692308 , 4646.15384615 , 4632.30769231 , 4538.46153846 , 4028.71794872 , 4098.97435897 , 4475.38461538 , 4410.76923077 , 4218.97435897 , 3957.43589744 , 1737.0 , 1665.0 , 4.125 , 0.0 , 0.0 , 0.0 , 0.0 , 

9.0 , 4341.02564103 , 3967.17948718 , 4386.66666667 , 3680.0 , 4384.1025641 , 4648.71794872 , 4633.84615385 , 4535.38461538 , 4029.74358974 , 4098.46153846 , 4483.58974359 , 4411.28205128 , 4216.41025641 , 3955.38461538 , 1738.0 , 1667.0 , 4.133 , 0.0 , 0.0 , 0.0 , 0.0 , 

10.0 , 4342.05128205 , 3973.33333333 , 4388.71794872 , 3683.58974359 , 4383.58974359 , 4651.28205128 , 4632.82051282 , 4537.43589744 , 4025.12820513 , 4098.46153846 , 4484.1025641 , 4414.35897436 , 4217.94871795 , 3957.94871795 , 1738.0 , 1669.0 , 4.14 , 0.0 , 0.0 , 0.0 , 0.0 , 

11.0 , 4341.02564103 , 3981.02564103 , 4386.15384615 , 3684.61538462 , 4383.07692308 , 4654.87179487 , 4629.23076923 , 4531.79487179 , 4020.51282051 , 4098.46153846 , 4474.87179487 , 4411.28205128 , 4219.48717949 , 3959.48717949 , 1737.0 , 1672.0 , 4.148 , 0.0 , 0.0 , 0.0 , 0.0 , 

12.0 , 4335.38461538 , 3977.43589744 , 4381.53846154 , 3680.51282051 , 4384.1025641 , 4652.30769231 , 4621.53846154 , 4518.97435897 , 4021.53846154 , 4098.46153846 , 4473.33333333 , 4400.51282051 , 4214.35897436 , 3955.38461538 , 1736.0 , 1676.0 , 4.156 , 0.0 , 0.0 , 0.0 , 0.0 , 

13.0 , 4334.35897436 , 3970.76923077 , 4380.0 , 3676.41025641 , 4384.1025641 , 4646.15384615 , 4616.92307692 , 4523.07692308 , 4022.56410256 , 4098.46153846 , 4473.33333333 , 4400.51282051 , 4211.79487179 , 3953.84615385 , 1735.0 , 1678.0 , 4.164 , 0.0 , 0.0 , 0.0 , 0.0 , 

14.0 , 4340.0 , 3977.43589744 , 4386.15384615 , 3679.48717949 , 4382.56410256 , 4650.76923077 , 4621.53846154 , 4533.33333333 , 4020.51282051 , 4098.46153846 , 4477.94871795 , 4411.79487179 , 4223.07692308 , 3956.92307692 , 1734.0 , 1681.0 , 4.172 , 0.0 , 0.0 , 0.0 , 0.0 , 

15.0 , 4344.1025641 , 3986.66666667 , 4390.76923077 , 3684.61538462 , 4382.56410256 , 4659.48717949 , 4629.23076923 , 4539.48717949 , 4021.53846154 , 4098.46153846 , 4490.25641026 , 4414.35897436 , 4231.79487179 , 3959.48717949 , 1734.0 , 1681.0 , 4.179 , 0.0 , 0.0 , 0.0 , 0.0 , 

16.0 , 4343.07692308 , 3987.69230769 , 4391.79487179 , 3686.66666667 , 4383.07692308 , 4656.92307692 , 4631.79487179 , 4546.15384615 , 4023.07692308 , 4098.46153846 , 4491.79487179 , 4411.79487179 , 4230.25641026 , 3964.1025641 , 1733.0 , 1683.0 , 4.187 , 0.0 , 0.0 , 0.0 , 0.0 , 

17.0 , 4343.58974359 , 3986.66666667 , 4395.38461538 , 3686.15384615 , 4382.56410256 , 4649.23076923 , 4632.82051282 , 4547.69230769 , 4022.05128205 , 4098.46153846 , 4491.79487179 , 4414.87179487 , 4231.79487179 , 3971.79487179 , 1732.0 , 1683.0 , 4.195 , 0.0 , 0.0 , 0.0 , 0.0 , 

18.0 , 4342.56410256 , 3982.56410256 , 4395.8974359 , 3684.1025641 , 4382.05128205 , 4651.28205128 , 4633.33333333 , 4540.0 , 4022.05128205 , 4098.46153846 , 4489.23076923 , 4413.84615385 , 4226.66666667 , 3971.28205128 , 1731.0 , 1684.0 , 4.203 , 0.0 , 0.0 , 0.0 , 0.0 , 

19.0 , 4335.8974359 , 3975.38461538 , 4388.20512821 , 3681.53846154 , 4381.02564103 , 4656.92307692 , 4630.25641026 , 4533.84615385 , 4022.56410256 , 4098.46153846 , 4480.51282051 , 4410.25641026 , 4213.84615385 , 3960.51282051 , 1730.0 , 1684.0 , 4.212 , 0.0 , 0.0 , 0.0 , 0.0 , 

20.0 , 4335.38461538 , 3975.8974359 , 4385.12820513 , 3683.07692308 , 4381.02564103 , 4658.97435897 , 4629.23076923 , 4535.8974359 , 4022.56410256 , 4098.46153846 , 4482.56410256 , 4411.79487179 , 4215.38461538 , 3957.43589744 , 1730.0 , 1683.0 , 4.218 , 0.0 , 0.0 , 0.0 , 0.0 , 

21.0 , 4341.53846154 , 3978.46153846 , 4391.28205128 , 3684.61538462 , 4383.58974359 , 4660.51282051 , 4632.30769231 , 4536.92307692 , 4022.56410256 , 4098.46153846 , 4489.23076923 , 4413.33333333 , 4229.23076923 , 3966.66666667 , 1728.0 , 1683.0 , 4.226 , 0.0 , 0.0 , 0.0 , 0.0 , 

22.0 , 4347.69230769 , 3976.92307692 , 4396.92307692 , 3683.58974359 , 4384.1025641 , 4658.46153846 , 4631.79487179 , 4536.41025641 , 4022.56410256 , 4098.97435897 , 4487.69230769 , 4419.48717949 , 4235.38461538 , 3974.87179487 , 1729.0 , 1681.0 , 4.234 , 0.0 , 0.0 , 0.0 , 0.0 , 

23.0 , 4349.74358974 , 3980.51282051 , 4398.46153846 , 3685.12820513 , 4382.05128205 , 4657.43589744 , 4630.25641026 , 4536.41025641 , 4022.56410256 , 4097.94871795 , 4489.23076923 , 4427.17948718 , 4232.82051282 , 3976.41025641 , 1727.0 , 1680.0 , 4.242 , 0.0 , 0.0 , 0.0 , 0.0 , 

24.0 , 4348.20512821 , 3987.17948718 , 4398.46153846 , 3685.12820513 , 4381.53846154 , 4660.51282051 , 4632.30769231 , 4534.87179487 , 4022.56410256 , 4098.97435897 , 4495.8974359 , 4420.0 , 4232.82051282 , 3975.38461538 , 1727.0 , 1681.0 , 4.25 , 0.0 , 0.0 , 0.0 , 0.0 , 

25.0 , 4343.58974359 , 3981.53846154 , 4398.97435897 , 3683.58974359 , 4383.07692308 , 4657.43589744 , 4633.33333333 , 4536.41025641 , 4022.56410256 , 4103.58974359 , 4492.82051282 , 4410.76923077 , 4232.30769231 , 3969.74358974 , 1726.0 , 1681.0 , 4.257 , 0.0 , 0.0 , 0.0 , 0.0 , 

26.0 , 4337.43589744 , 3974.35897436 , 4394.87179487 , 3684.1025641 , 4383.07692308 , 4650.76923077 , 4634.35897436 , 4536.41025641 , 4022.56410256 , 4104.61538462 , 4480.51282051 , 4412.30769231 , 4222.56410256 , 3959.48717949 , 1726.0 , 1680.0 , 4.265 , 0.0 , 0.0 , 0.0 , 0.0 , 

27.0 , 4330.76923077 , 3970.25641026 , 4387.17948718 , 3681.53846154 , 4383.07692308 , 4648.20512821 , 4632.82051282 , 4527.69230769 , 4022.56410256 , 4104.1025641 , 4472.30769231 , 4407.17948718 , 4210.76923077 , 3954.35897436 , 1725.0 , 1681.0 , 4.273 , 0.0 , 0.0 , 0.0 , 0.0 , 

28.0 , 4332.82051282 , 3966.66666667 , 4389.74358974 , 3677.43589744 , 4383.58974359 , 4647.17948718 , 4628.71794872 , 4520.51282051 , 4022.56410256 , 4103.58974359 , 4478.97435897 , 4403.58974359 , 4213.33333333 , 3958.46153846 , 1725.0 , 1679.0 , 4.282 , 0.0 , 0.0 , 0.0 , 0.0 , 

29.0 , 4343.07692308 , 3972.30769231 , 4397.43589744 , 3682.05128205 , 4383.58974359 , 4652.82051282 , 4634.35897436 , 4531.28205128 , 4022.56410256 , 4103.58974359 , 4488.20512821 , 4411.28205128 , 4224.1025641 , 3964.1025641 , 1724.0 , 1679.0 , 4.289 , 0.0 , 0.0 , 0.0 , 0.0 , 

30.0 , 4341.02564103 , 3973.33333333 , 4394.87179487 , 3685.12820513 , 4383.58974359 , 4656.41025641 , 4640.51282051 , 4537.94871795 , 4022.56410256 , 4103.07692308 , 4482.05128205 , 4411.79487179 , 4220.0 , 3962.05128205 , 1723.0 , 1680.0 , 4.297 , 0.0 , 0.0 , 0.0 , 0.0 , 

31.0 , 4332.30769231 , 3961.02564103 , 4387.69230769 , 3677.43589744 , 4383.07692308 , 4648.71794872 , 4633.84615385 , 4528.71794872 , 4022.56410256 , 4101.53846154 , 4470.76923077 , 4403.07692308 , 4205.12820513 , 3950.76923077 , 1723.0 , 1679.0 , 4.305 , 0.0 , 0.0 , 0.0 , 0.0 , 

32.0 , 4329.23076923 , 3954.35897436 , 4385.64102564 , 3673.84615385 , 4382.56410256 , 4649.74358974 , 4633.84615385 , 4523.07692308 , 4022.56410256 , 4098.46153846 , 4465.12820513 , 4398.97435897 , 4199.48717949 , 3940.0 , 1721.0 , 1680.0 , 4.313 , 0.0 , 0.0 , 0.0 , 0.0 , 

33.0 , 4327.17948718 , 3957.43589744 , 4383.58974359 , 3676.92307692 , 4382.56410256 , 4658.46153846 , 4639.48717949 , 4524.61538462 , 4022.56410256 , 4097.94871795 , 4461.53846154 , 4397.43589744 , 4205.64102564 , 3939.48717949 , 1722.0 , 1679.0 , 4.321 , 0.0 , 0.0 , 0.0 , 0.0 , 

34.0 , 4328.71794872 , 3956.41025641 , 4381.02564103 , 3675.38461538 , 4382.56410256 , 4654.35897436 , 4635.38461538 , 4523.07692308 , 4022.56410256 , 4102.56410256 , 4458.46153846 , 4398.97435897 , 4203.58974359 , 3946.15384615 , 1722.0 , 1679.0 , 4.329 , 0.0 , 0.0 , 0.0 , 0.0 , 

35.0 , 4335.8974359 , 3957.43589744 , 4385.12820513 , 3677.43589744 , 4382.56410256 , 4644.61538462 , 4629.74358974 , 4523.58974359 , 4022.56410256 , 4104.1025641 , 4463.58974359 , 4404.61538462 , 4200.51282051 , 3952.82051282 , 1722.0 , 1677.0 , 4.337 , 0.0 , 0.0 , 0.0 , 0.0 , 

36.0 , 4336.41025641 , 3962.05128205 , 4390.25641026 , 3680.51282051 , 4383.07692308 , 4646.15384615 , 4628.71794872 , 4525.64102564 , 4022.56410256 , 4103.58974359 , 4471.79487179 , 4404.1025641 , 4209.74358974 , 3954.35897436 , 1722.0 , 1676.0 , 4.344 , 0.0 , 0.0 , 0.0 , 0.0 , 

37.0 , 4331.28205128 , 3958.46153846 , 4387.69230769 , 3679.48717949 , 4382.56410256 , 4649.23076923 , 4626.66666667 , 4524.61538462 , 4022.56410256 , 4103.58974359 , 4475.8974359 , 4401.53846154 , 4218.46153846 , 3950.25641026 , 1723.0 , 1677.0 , 4.352 , 0.0 , 0.0 , 0.0 , 0.0 , 

38.0 , 4333.33333333 , 3955.38461538 , 4389.23076923 , 3679.48717949 , 4381.53846154 , 4649.23076923 , 4629.74358974 , 4525.12820513 , 4022.56410256 , 4101.53846154 , 4470.25641026 , 4406.66666667 , 4215.8974359 , 3945.12820513 , 1723.0 , 1678.0 , 4.36 , 0.0 , 0.0 , 0.0 , 0.0 , 

39.0 , 4333.33333333 , 3957.94871795 , 4392.30769231 , 3677.94871795 , 4381.02564103 , 4648.20512821 , 4631.79487179 , 4523.07692308 , 4022.56410256 , 4098.97435897 , 4463.58974359 , 4409.23076923 , 4210.25641026 , 3943.58974359 , 1725.0 , 1678.0 , 4.368 , 0.0 , 0.0 , 0.0 , 0.0 , 

40.0 , 4330.76923077 , 3957.43589744 , 4388.20512821 , 3676.41025641 , 4382.05128205 , 4646.15384615 , 4623.58974359 , 4517.43589744 , 4022.05128205 , 4098.46153846 , 4463.58974359 , 4404.61538462 , 4209.23076923 , 3947.69230769 , 1724.0 , 1677.0 , 4.376 , 0.0 , 0.0 , 0.0 , 0.0 , 

41.0 , 4333.84615385 , 3956.92307692 , 4389.23076923 , 3682.56410256 , 4384.61538462 , 4644.61538462 , 4624.61538462 , 4518.97435897 , 4022.05128205 , 4098.97435897 , 4461.02564103 , 4404.1025641 , 4214.87179487 , 3958.46153846 , 1725.0 , 1678.0 , 4.383 , 0.0 , 0.0 , 0.0 , 0.0 , 

42.0 , 4335.8974359 , 3958.46153846 , 4393.33333333 , 3685.64102564 , 4384.61538462 , 4642.05128205 , 4630.76923077 , 4523.07692308 , 4022.56410256 , 4099.48717949 , 4462.05128205 , 4405.12820513 , 4219.48717949 , 3958.97435897 , 1726.0 , 1678.0 , 4.392 , 0.0 , 0.0 , 0.0 , 0.0 , 

43.0 , 4330.25641026 , 3954.87179487 , 4389.23076923 , 3680.51282051 , 4383.58974359 , 4638.97435897 , 4623.58974359 , 4522.56410256 , 4022.05128205 , 4099.48717949 , 4471.79487179 , 4403.58974359 , 4212.30769231 , 3948.20512821 , 1726.0 , 1681.0 , 4.398 , 0.0 , 0.0 , 0.0 , 0.0 , 

44.0 , 4329.74358974 , 3949.74358974 , 4386.15384615 , 3681.53846154 , 4383.58974359 , 4639.48717949 , 4617.43589744 , 4521.02564103 , 4021.53846154 , 4097.94871795 , 4479.48717949 , 4405.64102564 , 4207.17948718 , 3948.20512821 , 1727.0 , 1681.0 , 4.407 , 0.0 , 0.0 , 0.0 , 0.0 , 

45.0 , 4335.38461538 , 3949.74358974 , 4390.76923077 , 3686.15384615 , 4383.58974359 , 4642.05128205 , 4625.12820513 , 4523.58974359 , 4025.64102564 , 4099.48717949 , 4478.46153846 , 4410.76923077 , 4214.87179487 , 3959.48717949 , 1726.0 , 1681.0 , 4.414 , 0.0 , 0.0 , 0.0 , 0.0 , 

46.0 , 4335.38461538 , 3949.74358974 , 4390.25641026 , 3684.1025641 , 4382.56410256 , 4641.53846154 , 4633.33333333 , 4526.15384615 , 4029.74358974 , 4103.58974359 , 4475.8974359 , 4412.30769231 , 4220.0 , 3960.0 , 1727.0 , 1680.0 , 4.422 , 0.0 , 0.0 , 0.0 , 0.0 , 

47.0 , 4333.33333333 , 3948.20512821 , 4390.25641026 , 3682.05128205 , 4382.56410256 , 4642.56410256 , 4629.74358974 , 4525.64102564 , 4029.74358974 , 4104.61538462 , 4475.38461538 , 4408.20512821 , 4217.94871795 , 3953.84615385 , 1727.0 , 1679.0 , 4.43 , 0.0 , 0.0 , 0.0 , 0.0 , 

48.0 , 4334.87179487 , 3944.1025641 , 4392.30769231 , 3683.58974359 , 4382.56410256 , 4648.20512821 , 4626.15384615 , 4523.58974359 , 4027.69230769 , 4103.58974359 , 4473.33333333 , 4400.0 , 4215.38461538 , 3954.35897436 , 1727.0 , 1678.0 , 4.437 , 0.0 , 0.0 , 0.0 , 0.0 , 

49.0 , 4334.87179487 , 3938.46153846 , 4388.71794872 , 3681.53846154 , 4383.07692308 , 4647.69230769 , 4629.23076923 , 4522.56410256 , 4023.58974359 , 4104.1025641 , 4473.84615385 , 4395.8974359 , 4214.87179487 , 3957.94871795 , 1727.0 , 1678.0 , 4.445 , 0.0 , 0.0 , 0.0 , 0.0 , 

50.0 , 4334.87179487 , 3938.97435897 , 4387.17948718 , 3679.48717949 , 4384.1025641 , 4642.05128205 , 4631.79487179 , 4522.05128205 , 4021.53846154 , 4103.58974359 , 4473.84615385 , 4402.56410256 , 4215.8974359 , 3957.94871795 , 1727.0 , 1678.0 , 4.453 , 0.0 , 0.0 , 0.0 , 0.0 , 

51.0 , 4339.48717949 , 3944.1025641 , 4392.82051282 , 3682.56410256 , 4384.1025641 , 4645.12820513 , 4633.33333333 , 4526.15384615 , 4021.53846154 , 4102.56410256 , 4473.84615385 , 4409.74358974 , 4215.38461538 , 3957.94871795 , 1728.0 , 1676.0 , 4.461 , 0.0 , 0.0 , 0.0 , 0.0 , 

52.0 , 4343.07692308 , 3944.1025641 , 4397.94871795 , 3682.56410256 , 4383.58974359 , 4650.25641026 , 4634.35897436 , 4534.87179487 , 4021.53846154 , 4103.07692308 , 4477.43589744 , 4411.28205128 , 4217.94871795 , 3965.12820513 , 1728.0 , 1675.0 , 4.469 , 0.0 , 0.0 , 0.0 , 0.0 , 

53.0 , 4342.05128205 , 3942.05128205 , 4397.94871795 , 3682.05128205 , 4383.58974359 , 4646.15384615 , 4633.33333333 , 4538.97435897 , 4021.53846154 , 4103.07692308 , 4478.46153846 , 4412.30769231 , 4229.23076923 , 3972.82051282 , 1728.0 , 1672.0 , 4.477 , 0.0 , 0.0 , 0.0 , 0.0 , 

54.0 , 4344.1025641 , 3943.07692308 , 4397.43589744 , 3688.71794872 , 4383.58974359 , 4644.1025641 , 4634.87179487 , 4539.48717949 , 4021.53846154 , 4102.56410256 , 4478.97435897 , 4413.84615385 , 4238.46153846 , 3972.82051282 , 1727.0 , 1673.0 , 4.484 , 0.0 , 0.0 , 0.0 , 0.0 , 

55.0 , 4347.17948718 , 3943.07692308 , 4398.46153846 , 3692.30769231 , 4383.58974359 , 4649.23076923 , 4640.51282051 , 4539.48717949 , 4022.56410256 , 4103.07692308 , 4478.97435897 , 4412.82051282 , 4231.79487179 , 3971.79487179 , 1728.0 , 1670.0 , 4.492 , 0.0 , 0.0 , 0.0 , 0.0 , 

56.0 , 4344.61538462 , 3932.82051282 , 4398.46153846 , 3686.66666667 , 4383.58974359 , 4648.71794872 , 4642.56410256 , 4536.92307692 , 4026.15384615 , 4103.07692308 , 4476.92307692 , 4407.17948718 , 4220.0 , 3968.20512821 , 1727.0 , 1670.0 , 4.5 , 0.0 , 0.0 , 0.0 , 0.0 , 

57.0 , 4341.53846154 , 3925.64102564 , 4396.41025641 , 3683.58974359 , 4383.58974359 , 4646.15384615 , 4640.0 , 4535.38461538 , 4025.64102564 , 4103.07692308 , 4474.87179487 , 4403.07692308 , 4217.43589744 , 3959.48717949 , 1727.0 , 1670.0 , 4.508 , 0.0 , 0.0 , 0.0 , 0.0 , 

58.0 , 4343.07692308 , 3929.23076923 , 4396.41025641 , 3685.64102564 , 4384.1025641 , 4648.71794872 , 4639.48717949 , 4538.46153846 , 4021.02564103 , 4103.07692308 , 4471.79487179 , 4403.58974359 , 4216.92307692 , 3956.92307692 , 1726.0 , 1669.0 , 4.515 , 0.0 , 0.0 , 0.0 , 0.0 , 

59.0 , 4338.46153846 , 3929.23076923 , 4394.35897436 , 3684.1025641 , 4383.07692308 , 4649.74358974 , 4640.0 , 4535.38461538 , 4021.02564103 , 4103.07692308 , 4463.58974359 , 4402.56410256 , 4213.33333333 , 3958.46153846 , 1726.0 , 1669.0 , 4.523 , 0.0 , 0.0 , 0.0 , 0.0 , 

60.0 , 4332.82051282 , 3923.58974359 , 4391.79487179 , 3681.53846154 , 4381.02564103 , 4647.17948718 , 4641.53846154 , 4529.23076923 , 4021.53846154 , 4103.07692308 , 4458.46153846 , 4401.53846154 , 4213.84615385 , 3957.94871795 , 1726.0 , 1667.0 , 4.533 , 0.0 , 0.0 , 0.0 , 0.0 , 

61.0 , 4334.35897436 , 3923.07692308 , 4392.82051282 , 3682.56410256 , 4382.56410256 , 4647.17948718 , 4642.56410256 , 4527.17948718 , 4020.0 , 4103.07692308 , 4460.51282051 , 4403.58974359 , 4214.35897436 , 3958.46153846 , 1725.0 , 1666.0 , 4.539 , 0.0 , 0.0 , 0.0 , 0.0 , 

62.0 , 4335.38461538 , 3924.1025641 , 4392.30769231 , 3682.05128205 , 4384.1025641 , 4646.15384615 , 4634.35897436 , 4524.1025641 , 4021.02564103 , 4103.07692308 , 4461.02564103 , 4402.56410256 , 4203.07692308 , 3955.8974359 , 1724.0 , 1665.0 , 4.547 , 0.0 , 0.0 , 0.0 , 0.0 , 

63.0 , 4332.82051282 , 3923.07692308 , 4392.30769231 , 3680.51282051 , 4382.56410256 , 4642.56410256 , 4631.28205128 , 4525.12820513 , 4021.53846154 , 4103.07692308 , 4460.0 , 4402.05128205 , 4196.41025641 , 3951.79487179 , 1724.0 , 1664.0 , 4.555 , 0.0 , 0.0 , 0.0 , 0.0 , 

64.0 , 4333.33333333 , 3925.12820513 , 4393.33333333 , 3682.05128205 , 4379.48717949 , 4646.15384615 , 4641.53846154 , 4536.41025641 , 4019.48717949 , 4103.07692308 , 4460.51282051 , 4402.05128205 , 4207.69230769 , 3956.92307692 , 1724.0 , 1664.0 , 4.562 , 0.0 , 0.0 , 0.0 , 0.0 , 

65.0 , 4334.87179487 , 3925.12820513 , 4392.82051282 , 3685.12820513 , 4378.97435897 , 4650.25641026 , 4641.53846154 , 4541.53846154 , 4021.02564103 , 4103.07692308 , 4465.12820513 , 4401.53846154 , 4214.87179487 , 3960.51282051 , 1724.0 , 1665.0 , 4.57 , 0.0 , 0.0 , 0.0 , 0.0 , 

66.0 , 4336.92307692 , 3923.58974359 , 4392.30769231 , 3683.07692308 , 4381.53846154 , 4642.05128205 , 4630.25641026 , 4533.84615385 , 4020.51282051 , 4103.07692308 , 4471.79487179 , 4402.05128205 , 4211.28205128 , 3957.94871795 , 1724.0 , 1665.0 , 4.578 , 0.0 , 0.0 , 0.0 , 0.0 , 

67.0 , 4342.56410256 , 3926.15384615 , 4396.92307692 , 3683.58974359 , 4382.56410256 , 4635.8974359 , 4630.76923077 , 4534.35897436 , 4019.48717949 , 4103.07692308 , 4475.38461538 , 4405.64102564 , 4218.97435897 , 3962.05128205 , 1725.0 , 1666.0 , 4.586 , 0.0 , 0.0 , 0.0 , 0.0 , 

68.0 , 4348.20512821 , 3928.20512821 , 4398.97435897 , 3689.23076923 , 4382.05128205 , 4642.56410256 , 4642.56410256 , 4545.12820513 , 4024.61538462 , 4103.07692308 , 4477.94871795 , 4411.28205128 , 4233.84615385 , 3974.35897436 , 1725.0 , 1668.0 , 4.594 , 0.0 , 0.0 , 0.0 , 0.0 , 

69.0 , 4345.12820513 , 3926.15384615 , 4392.82051282 , 3687.69230769 , 4382.56410256 , 4647.69230769 , 4645.12820513 , 4540.51282051 , 4030.25641026 , 4103.07692308 , 4479.48717949 , 4408.71794872 , 4226.15384615 , 3972.82051282 , 1726.0 , 1669.0 , 4.602 , 0.0 , 0.0 , 0.0 , 0.0 , 

70.0 , 4340.0 , 3926.15384615 , 4385.64102564 , 3681.53846154 , 4383.58974359 , 4645.12820513 , 4635.8974359 , 4524.61538462 , 4029.23076923 , 4103.07692308 , 4473.33333333 , 4400.51282051 , 4213.84615385 , 3962.05128205 , 1726.0 , 1670.0 , 4.612 , 0.0 , 0.0 , 0.0 , 0.0 , 

71.0 , 4342.05128205 , 3930.25641026 , 4387.17948718 , 3685.12820513 , 4382.05128205 , 4645.64102564 , 4630.25641026 , 4521.02564103 , 4027.17948718 , 4103.07692308 , 4469.23076923 , 4399.48717949 , 4220.51282051 , 3960.0 , 1727.0 , 1672.0 , 4.617 , 0.0 , 0.0 , 0.0 , 0.0 , 

72.0 , 4343.58974359 , 3931.28205128 , 4397.43589744 , 3689.23076923 , 4381.53846154 , 4649.74358974 , 4633.33333333 , 4525.12820513 , 4030.25641026 , 4103.07692308 , 4472.30769231 , 4405.12820513 , 4223.07692308 , 3962.05128205 , 1728.0 , 1671.0 , 4.627 , 0.0 , 0.0 , 0.0 , 0.0 , 

73.0 , 4343.58974359 , 3928.71794872 , 4399.48717949 , 3685.64102564 , 4381.53846154 , 4650.25641026 , 4635.38461538 , 4523.07692308 , 4031.28205128 , 4102.56410256 , 4474.87179487 , 4408.71794872 , 4219.48717949 , 3962.56410256 , 1727.0 , 1674.0 , 4.633 , 0.0 , 0.0 , 0.0 , 0.0 , 

74.0 , 4348.20512821 , 3928.20512821 , 4394.87179487 , 3687.69230769 , 4381.53846154 , 4646.15384615 , 4630.76923077 , 4525.64102564 , 4024.1025641 , 4103.07692308 , 4478.46153846 , 4411.28205128 , 4227.17948718 , 3967.69230769 , 1728.0 , 1675.0 , 4.643 , 0.0 , 0.0 , 0.0 , 0.0 , 

75.0 , 4352.30769231 , 3928.71794872 , 4401.53846154 , 3695.8974359 , 4384.1025641 , 4638.46153846 , 4629.23076923 , 4534.35897436 , 4018.46153846 , 4103.58974359 , 4487.69230769 , 4415.38461538 , 4236.92307692 , 3974.87179487 , 1728.0 , 1678.0 , 4.648 , 0.0 , 0.0 , 0.0 , 0.0 , 

76.0 , 4350.25641026 , 3928.71794872 , 4407.17948718 , 3695.8974359 , 4385.12820513 , 4637.43589744 , 4635.8974359 , 4537.43589744 , 4024.61538462 , 4101.53846154 , 4491.79487179 , 4414.35897436 , 4233.84615385 , 3976.41025641 , 1728.0 , 1679.0 , 4.657 , 0.0 , 0.0 , 0.0 , 0.0 , 

77.0 , 4348.71794872 , 3925.12820513 , 4400.0 , 3689.74358974 , 4383.58974359 , 4642.56410256 , 4635.8974359 , 4534.35897436 , 4030.76923077 , 4098.46153846 , 4482.56410256 , 4413.33333333 , 4223.58974359 , 3971.79487179 , 1728.0 , 1680.0 , 4.665 , 0.0 , 0.0 , 0.0 , 0.0 , 

78.0 , 4349.23076923 , 3921.53846154 , 4395.38461538 , 3689.23076923 , 4383.58974359 , 4644.61538462 , 4631.28205128 , 4533.33333333 , 4024.61538462 , 4098.46153846 , 4475.8974359 , 4413.84615385 , 4218.46153846 , 3968.71794872 , 1725.0 , 1683.0 , 4.672 , 0.0 , 0.0 , 0.0 , 0.0 , 

79.0 , 4351.28205128 , 3925.64102564 , 4400.51282051 , 3694.35897436 , 4385.12820513 , 4645.12820513 , 4640.51282051 , 4540.51282051 , 4019.48717949 , 4099.48717949 , 4478.97435897 , 4415.8974359 , 4227.17948718 , 3973.33333333 , 1725.0 , 1685.0 , 4.68 , 0.0 , 0.0 , 0.0 , 0.0 , 

80.0 , 4350.76923077 , 3922.56410256 , 4399.48717949 , 3690.76923077 , 4385.12820513 , 4643.58974359 , 4642.05128205 , 4540.51282051 , 4022.05128205 , 4099.48717949 , 4478.46153846 , 4415.8974359 , 4235.8974359 , 3977.43589744 , 1723.0 , 1686.0 , 4.688 , 0.0 , 0.0 , 0.0 , 0.0 , 

81.0 , 4345.12820513 , 3910.25641026 , 4393.84615385 , 3681.53846154 , 4383.07692308 , 4638.97435897 , 4625.12820513 , 4524.61538462 , 4022.56410256 , 4098.97435897 , 4471.79487179 , 4409.74358974 , 4229.23076923 , 3971.28205128 , 1722.0 , 1686.0 , 4.695 , 0.0 , 0.0 , 0.0 , 0.0 , 

82.0 , 4342.05128205 , 3913.33333333 , 4396.92307692 , 3685.12820513 , 4381.53846154 , 4641.53846154 , 4626.15384615 , 4518.97435897 , 4020.51282051 , 4098.46153846 , 4475.8974359 , 4406.66666667 , 4226.15384615 , 3966.15384615 , 1721.0 , 1688.0 , 4.703 , 0.0 , 0.0 , 0.0 , 0.0 , 

83.0 , 4344.1025641 , 3925.12820513 , 4400.0 , 3693.84615385 , 4381.02564103 , 4647.69230769 , 4642.56410256 , 4532.82051282 , 4021.53846154 , 4098.97435897 , 4485.64102564 , 4411.28205128 , 4232.30769231 , 3969.74358974 , 1721.0 , 1686.0 , 4.711 , 0.0 , 0.0 , 0.0 , 0.0 , 

84.0 , 4342.56410256 , 3924.61538462 , 4398.46153846 , 3688.71794872 , 4381.02564103 , 4644.61538462 , 4638.46153846 , 4540.51282051 , 4023.07692308 , 4098.46153846 , 4488.20512821 , 4416.41025641 , 4231.28205128 , 3972.82051282 , 1719.0 , 1687.0 , 4.719 , 0.0 , 0.0 , 0.0 , 0.0 , 

85.0 , 4342.56410256 , 3922.05128205 , 4396.92307692 , 3681.53846154 , 4381.02564103 , 4637.43589744 , 4628.71794872 , 4537.94871795 , 4022.05128205 , 4097.94871795 , 4489.23076923 , 4417.94871795 , 4230.25641026 , 3972.82051282 , 1720.0 , 1685.0 , 4.727 , 0.0 , 0.0 , 0.0 , 0.0 , 

86.0 , 4345.12820513 , 3925.64102564 , 4396.92307692 , 3683.07692308 , 4382.56410256 , 4635.8974359 , 4631.28205128 , 4540.0 , 4022.56410256 , 4101.53846154 , 4485.64102564 , 4417.43589744 , 4233.84615385 , 3973.33333333 , 1719.0 , 1685.0 , 4.734 , 0.0 , 0.0 , 0.0 , 0.0 , 

87.0 , 4342.56410256 , 3925.64102564 , 4395.8974359 , 3684.1025641 , 4384.1025641 , 4632.30769231 , 4631.28205128 , 4538.97435897 , 4022.56410256 , 4104.61538462 , 4476.41025641 , 4413.84615385 , 4223.07692308 , 3971.28205128 , 1721.0 , 1686.0 , 4.742 , 0.0 , 0.0 , 0.0 , 0.0 , 

88.0 , 4341.02564103 , 3925.64102564 , 4393.84615385 , 3684.1025641 , 4384.1025641 , 4631.28205128 , 4629.23076923 , 4536.92307692 , 4022.56410256 , 4104.1025641 , 4473.84615385 , 4412.82051282 , 4212.82051282 , 3970.25641026 , 1721.0 , 1683.0 , 4.751 , 0.0 , 0.0 , 0.0 , 0.0 , 

89.0 , 4343.58974359 , 3928.71794872 , 4396.41025641 , 3684.61538462 , 4383.58974359 , 4633.84615385 , 4631.79487179 , 4540.0 , 4022.56410256 , 4103.58974359 , 4480.51282051 , 4417.94871795 , 4224.1025641 , 3972.82051282 , 1721.0 , 1683.0 , 4.759 , 0.0 , 0.0 , 0.0 , 0.0 , 

90.0 , 4342.56410256 , 3926.15384615 , 4393.84615385 , 3681.53846154 , 4384.1025641 , 4633.33333333 , 4631.28205128 , 4539.48717949 , 4022.56410256 , 4103.58974359 , 4478.46153846 , 4418.46153846 , 4228.20512821 , 3969.23076923 , 1723.0 , 1680.0 , 4.767 , 0.0 , 0.0 , 0.0 , 0.0 , 

91.0 , 4342.05128205 , 3925.64102564 , 4390.25641026 , 3680.51282051 , 4384.61538462 , 4638.46153846 , 4633.33333333 , 4534.35897436 , 4022.56410256 , 4103.07692308 , 4470.25641026 , 4413.84615385 , 4214.35897436 , 3961.02564103 , 1723.0 , 1680.0 , 4.775 , 0.0 , 0.0 , 0.0 , 0.0 , 

92.0 , 4341.53846154 , 3924.1025641 , 4394.87179487 , 3682.56410256 , 4384.61538462 , 4643.07692308 , 4639.48717949 , 4538.46153846 , 4022.56410256 , 4103.07692308 , 4475.38461538 , 4414.87179487 , 4215.8974359 , 3960.0 , 1724.0 , 1679.0 , 4.782 , 0.0 , 0.0 , 0.0 , 0.0 , 

93.0 , 4342.56410256 , 3922.56410256 , 4395.8974359 , 3682.56410256 , 4384.1025641 , 4635.8974359 , 4637.43589744 , 4540.0 , 4022.56410256 , 4102.56410256 , 4475.38461538 , 4417.43589744 , 4223.07692308 , 3960.51282051 , 1724.0 , 1678.0 , 4.79 , 0.0 , 0.0 , 0.0 , 0.0 , 

94.0 , 4349.74358974 , 3933.33333333 , 4389.74358974 , 3684.61538462 , 4383.07692308 , 4630.76923077 , 4630.25641026 , 4527.69230769 , 4022.56410256 , 4103.07692308 , 4462.56410256 , 4414.87179487 , 4208.20512821 , 3956.41025641 , 1725.0 , 1676.0 , 4.797 , 0.0 , 0.0 , 0.0 , 0.0 , 

95.0 , 4352.30769231 , 3942.56410256 , 4391.28205128 , 3692.30769231 , 4381.53846154 , 4643.07692308 , 4634.87179487 , 4522.05128205 , 4022.56410256 , 4103.07692308 , 4465.12820513 , 4411.79487179 , 4200.0 , 3957.43589744 , 1723.0 , 1676.0 , 4.805 , 0.0 , 0.0 , 0.0 , 0.0 , 

96.0 , 4345.64102564 , 3934.35897436 , 4394.35897436 , 3694.35897436 , 4381.53846154 , 4649.74358974 , 4641.02564103 , 4525.64102564 , 4022.05128205 , 4099.48717949 , 4477.43589744 , 4413.84615385 , 4209.23076923 , 3964.1025641 , 1725.0 , 1675.0 , 4.814 , 0.0 , 0.0 , 0.0 , 0.0 , 

97.0 , 4340.51282051 , 3924.61538462 , 4388.71794872 , 3686.15384615 , 4383.58974359 , 4641.02564103 , 4634.87179487 , 4522.56410256 , 4022.56410256 , 4097.43589744 , 4465.12820513 , 4413.33333333 , 4206.15384615 , 3955.8974359 , 1724.0 , 1674.0 , 4.82 , 0.0 , 0.0 , 0.0 , 0.0 , 

98.0 , 4341.02564103 , 3926.66666667 , 4388.20512821 , 3684.61538462 , 4383.58974359 , 4641.02564103 , 4633.84615385 , 4524.1025641 , 4023.07692308 , 4096.92307692 , 4454.87179487 , 4411.28205128 , 4196.92307692 , 3947.17948718 , 1724.0 , 1674.0 , 4.829 , 0.0 , 0.0 , 0.0 , 0.0 , 

99.0 , 4340.0 , 3926.66666667 , 4395.38461538 , 3688.20512821 , 4382.56410256 , 4642.56410256 , 4641.02564103 , 4537.94871795 , 4021.02564103 , 4096.41025641 , 4472.82051282 , 4413.33333333 , 4203.07692308 , 3955.38461538 , 1723.0 , 1673.0 , 4.837 , 0.0 , 0.0 , 0.0 , 0.0 , 

100.0 , 4335.8974359 , 3916.92307692 , 4393.84615385 , 3684.1025641 , 4383.07692308 , 4642.05128205 , 4643.58974359 , 4542.05128205 , 4024.1025641 , 4098.97435897 , 4477.94871795 , 4415.38461538 , 4204.1025641 , 3954.87179487 , 1723.0 , 1672.0 , 4.845 , 0.0 , 0.0 , 0.0 , 0.0 , 

101.0 , 4333.84615385 , 3910.25641026 , 4386.66666667 , 3678.46153846 , 4383.07692308 , 4646.15384615 , 4643.58974359 , 4532.30769231 , 4028.71794872 , 4103.58974359 , 4461.53846154 , 4412.82051282 , 4195.8974359 , 3942.05128205 , 1723.0 , 1670.0 , 4.853 , 0.0 , 0.0 , 0.0 , 0.0 , 

102.0 , 4335.38461538 , 3917.43589744 , 4386.15384615 , 3682.05128205 , 4383.58974359 , 4641.02564103 , 4644.61538462 , 4530.25641026 , 4025.12820513 , 4104.1025641 , 4455.38461538 , 4411.79487179 , 4200.0 , 3949.23076923 , 1722.0 , 1670.0 , 4.861 , 0.0 , 0.0 , 0.0 , 0.0 , 

103.0 , 4335.38461538 , 3927.69230769 , 4388.71794872 , 3686.15384615 , 4386.66666667 , 4631.28205128 , 4637.94871795 , 4534.35897436 , 4018.97435897 , 4102.56410256 , 4462.56410256 , 4414.87179487 , 4206.66666667 , 3959.48717949 , 1723.0 , 1669.0 , 4.868 , 0.0 , 0.0 , 0.0 , 0.0 , 

104.0 , 4332.82051282 , 3925.64102564 , 4389.23076923 , 3684.1025641 , 4388.71794872 , 4635.38461538 , 4630.76923077 , 4534.35897436 , 4020.0 , 4103.58974359 , 4469.74358974 , 4413.84615385 , 4209.74358974 , 3948.20512821 , 1723.0 , 1671.0 , 4.876 , 0.0 , 0.0 , 0.0 , 0.0 , 

105.0 , 4339.48717949 , 3922.05128205 , 4391.79487179 , 3684.1025641 , 4387.69230769 , 4640.51282051 , 4632.82051282 , 4532.30769231 , 4022.56410256 , 4104.1025641 , 4476.41025641 , 4415.38461538 , 4217.43589744 , 3948.20512821 , 1723.0 , 1670.0 , 4.884 , 0.0 , 0.0 , 0.0 , 0.0 , 

106.0 , 4343.58974359 , 3926.66666667 , 4392.82051282 , 3685.12820513 , 4387.17948718 , 4629.74358974 , 4631.28205128 , 4527.17948718 , 4021.53846154 , 4103.58974359 , 4477.94871795 , 4420.51282051 , 4221.02564103 , 3960.0 , 1723.0 , 1670.0 , 4.892 , 0.0 , 0.0 , 0.0 , 0.0 , 

107.0 , 4334.35897436 , 3925.64102564 , 4388.20512821 , 3684.1025641 , 4387.17948718 , 4631.28205128 , 4629.23076923 , 4524.1025641 , 4021.02564103 , 4104.1025641 , 4472.30769231 , 4417.43589744 , 4217.43589744 , 3955.8974359 , 1724.0 , 1668.0 , 4.9 , 0.0 , 0.0 , 0.0 , 0.0 , 

108.0 , 4329.23076923 , 3916.92307692 , 4388.20512821 , 3684.61538462 , 4386.66666667 , 4645.12820513 , 4637.94871795 , 4527.69230769 , 4021.02564103 , 4103.58974359 , 4473.33333333 , 4414.87179487 , 4214.35897436 , 3949.23076923 , 1724.0 , 1666.0 , 4.907 , 0.0 , 0.0 , 0.0 , 0.0 , 

109.0 , 4330.25641026 , 3911.79487179 , 4390.25641026 , 3682.56410256 , 4387.17948718 , 4643.07692308 , 4641.02564103 , 4531.28205128 , 4020.51282051 , 4103.58974359 , 4472.30769231 , 4417.94871795 , 4208.71794872 , 3946.15384615 , 1725.0 , 1667.0 , 4.915 , 0.0 , 0.0 , 0.0 , 0.0 , 

110.0 , 4327.69230769 , 3910.25641026 , 4386.66666667 , 3679.48717949 , 4387.69230769 , 4635.8974359 , 4633.84615385 , 4527.17948718 , 4020.51282051 , 4103.58974359 , 4459.48717949 , 4414.87179487 , 4202.05128205 , 3942.05128205 , 1725.0 , 1666.0 , 4.923 , 0.0 , 0.0 , 0.0 , 0.0 , 

111.0 , 4324.1025641 , 3908.20512821 , 4383.07692308 , 3680.0 , 4387.17948718 , 4636.41025641 , 4637.94871795 , 4525.12820513 , 4020.51282051 , 4103.58974359 , 4456.92307692 , 4409.74358974 , 4201.53846154 , 3937.94871795 , 1725.0 , 1667.0 , 4.931 , 0.0 , 0.0 , 0.0 , 0.0 , 

112.0 , 4326.15384615 , 3907.69230769 , 4382.56410256 , 3680.0 , 4387.17948718 , 4634.35897436 , 4645.64102564 , 4529.74358974 , 4022.05128205 , 4103.58974359 , 4471.28205128 , 4413.84615385 , 4202.56410256 , 3934.87179487 , 1726.0 , 1665.0 , 4.938 , 0.0 , 0.0 , 0.0 , 0.0 , 

113.0 , 4326.15384615 , 3910.25641026 , 4382.05128205 , 3675.8974359 , 4388.20512821 , 4629.74358974 , 4637.94871795 , 4527.69230769 , 4022.05128205 , 4103.58974359 , 4472.82051282 , 4409.23076923 , 4204.1025641 , 3929.23076923 , 1726.0 , 1664.0 , 4.947 , 0.0 , 0.0 , 0.0 , 0.0 , 

114.0 , 4324.1025641 , 3910.76923077 , 4381.53846154 , 3673.33333333 , 4386.15384615 , 4629.23076923 , 4631.79487179 , 4523.58974359 , 4021.53846154 , 4103.58974359 , 4458.97435897 , 4396.92307692 , 4201.02564103 , 3924.1025641 , 1726.0 , 1665.0 , 4.954 , 0.0 , 0.0 , 0.0 , 0.0 , 

115.0 , 4323.58974359 , 3906.66666667 , 4381.53846154 , 3674.35897436 , 4382.56410256 , 4627.69230769 , 4635.38461538 , 4524.61538462 , 4021.02564103 , 4103.58974359 , 4454.35897436 , 4402.05128205 , 4198.46153846 , 3926.15384615 , 1726.0 , 1666.0 , 4.962 , 0.0 , 0.0 , 0.0 , 0.0 , 

116.0 , 4327.69230769 , 3911.79487179 , 4384.61538462 , 3678.97435897 , 4382.56410256 , 4628.20512821 , 4634.35897436 , 4527.17948718 , 4021.53846154 , 4103.58974359 , 4461.02564103 , 4412.30769231 , 4208.71794872 , 3937.43589744 , 1726.0 , 1668.0 , 4.969 , 0.0 , 0.0 , 0.0 , 0.0 , 

117.0 , 4332.82051282 , 3923.58974359 , 4387.69230769 , 3685.12820513 , 4383.07692308 , 4634.87179487 , 4633.84615385 , 4526.15384615 , 4021.53846154 , 4103.58974359 , 4469.23076923 , 4412.30769231 , 4217.94871795 , 3947.17948718 , 1725.0 , 1669.0 , 4.978 , 0.0 , 0.0 , 0.0 , 0.0 , 

118.0 , 4332.30769231 , 3926.66666667 , 4387.69230769 , 3686.66666667 , 4382.05128205 , 4634.87179487 , 4635.38461538 , 4525.12820513 , 4021.53846154 , 4103.58974359 , 4472.82051282 , 4412.30769231 , 4214.35897436 , 3945.64102564 , 1726.0 , 1669.0 , 4.986 , 0.0 , 0.0 , 0.0 , 0.0 , 

119.0 , 4333.33333333 , 3923.58974359 , 4389.23076923 , 3685.64102564 , 4381.53846154 , 4630.25641026 , 4629.23076923 , 4525.12820513 , 4021.53846154 , 4103.58974359 , 4475.38461538 , 4417.43589744 , 4213.33333333 , 3944.1025641 , 1725.0 , 1669.0 , 4.992 , 0.0 , 0.0 , 0.0 , 0.0 , 

120.0 , 4332.82051282 , 3924.61538462 , 4389.23076923 , 3686.15384615 , 4382.05128205 , 4633.33333333 , 4625.12820513 , 4520.0 , 4021.53846154 , 4103.58974359 , 4476.92307692 , 4415.8974359 , 4218.46153846 , 3946.15384615 , 1725.0 , 1671.0 , 5.001 , 0.0 , 0.0 , 0.0 , 0.0 , 

121.0 , 4330.25641026 , 3923.58974359 , 4384.1025641 , 3686.15384615 , 4381.53846154 , 4633.33333333 , 4630.25641026 , 4519.48717949 , 4021.53846154 , 4103.58974359 , 4476.92307692 , 4412.82051282 , 4216.41025641 , 3944.61538462 , 1723.0 , 1674.0 , 5.009 , 0.0 , 0.0 , 0.0 , 0.0 , 

122.0 , 4330.76923077 , 3921.53846154 , 4382.05128205 , 3684.61538462 , 4381.53846154 , 4625.64102564 , 4629.74358974 , 4518.97435897 , 4021.53846154 , 4103.58974359 , 4474.35897436 , 4415.8974359 , 4211.79487179 , 3942.56410256 , 1723.0 , 1675.0 , 5.017 , 0.0 , 0.0 , 0.0 , 0.0 , 

123.0 , 4334.35897436 , 3925.12820513 , 4385.12820513 , 3684.61538462 , 4382.05128205 , 4624.61538462 , 4624.1025641 , 4510.76923077 , 4021.53846154 , 4103.58974359 , 4471.28205128 , 4411.28205128 , 4212.82051282 , 3942.56410256 , 1723.0 , 1676.0 , 5.024 , 0.0 , 0.0 , 0.0 , 0.0 , 

124.0 , 4335.38461538 , 3928.20512821 , 4387.69230769 , 3685.12820513 , 4381.53846154 , 4631.79487179 , 4625.12820513 , 4510.76923077 , 4021.53846154 , 4103.58974359 , 4472.30769231 , 4405.64102564 , 4215.38461538 , 3943.07692308 , 1723.0 , 1676.0 , 5.033 , 0.0 , 0.0 , 0.0 , 0.0 , 

125.0 , 4332.30769231 , 3925.12820513 , 4385.64102564 , 3685.12820513 , 4382.05128205 , 4632.82051282 , 4627.17948718 , 4522.56410256 , 4021.53846154 , 4103.58974359 , 4475.8974359 , 4407.69230769 , 4214.87179487 , 3943.07692308 , 1722.0 , 1678.0 , 5.04 , 0.0 , 0.0 , 0.0 , 0.0 , 

126.0 , 4327.17948718 , 3922.05128205 , 4382.05128205 , 3683.07692308 , 4382.05128205 , 4630.76923077 , 4622.56410256 , 4524.1025641 , 4021.53846154 , 4103.58974359 , 4475.38461538 , 4407.17948718 , 4212.82051282 , 3940.51282051 , 1723.0 , 1678.0 , 5.048 , 0.0 , 0.0 , 0.0 , 0.0 , 

127.0 , 4327.17948718 , 3924.61538462 , 4382.56410256 , 3684.1025641 , 4382.05128205 , 4629.23076923 , 4625.12820513 , 4512.82051282 , 4021.53846154 , 4103.58974359 , 4473.84615385 , 4404.1025641 , 4212.82051282 , 3942.05128205 , 1722.0 , 1679.0 , 5.055 , 0.0 , 0.0 , 0.0 , 0.0 , 

128.0 , 4329.23076923 , 3928.20512821 , 4384.61538462 , 3685.64102564 , 4382.05128205 , 4629.23076923 , 4625.64102564 , 4507.17948718 , 4021.53846154 , 4103.58974359 , 4471.79487179 , 4403.58974359 , 4212.30769231 , 3944.1025641 , 1723.0 , 1680.0 , 5.063 , 0.0 , 0.0 , 0.0 , 0.0 , 

0.0 , 4325.12820513 , 3924.1025641 , 4381.02564103 , 3679.48717949 , 4382.05128205 , 4638.97435897 , 4618.46153846 , 4505.12820513 , 4021.53846154 , 4103.58974359 , 4461.53846154 , 4398.97435897 , 4209.74358974 , 3938.97435897 , 1724.0 , 1678.0 , 5.071 , 0.0 , 0.0 , 0.0 , 0.0 , 

1.0 , 4323.58974359 , 3921.02564103 , 4379.48717949 , 3675.8974359 , 4382.05128205 , 4644.1025641 , 4623.58974359 , 4502.05128205 , 4021.53846154 , 4103.58974359 , 4459.48717949 , 4396.92307692 , 4212.30769231 , 3937.94871795 , 1723.0 , 1679.0 , 5.078 , 0.0 , 0.0 , 0.0 , 0.0 , 

2.0 , 4331.79487179 , 3927.17948718 , 4386.66666667 , 3685.12820513 , 4382.05128205 , 4635.38461538 , 4636.41025641 , 4507.69230769 , 4021.53846154 , 4103.58974359 , 4467.69230769 , 4407.69230769 , 4216.92307692 , 3946.15384615 , 1723.0 , 1678.0 , 5.086 , 0.0 , 0.0 , 0.0 , 0.0 , 

3.0 , 4336.92307692 , 3931.28205128 , 4390.25641026 , 3691.79487179 , 4382.05128205 , 4629.23076923 , 4631.79487179 , 4519.48717949 , 4021.53846154 , 4103.58974359 , 4464.1025641 , 4413.84615385 , 4214.87179487 , 3947.17948718 , 1723.0 , 1679.0 , 5.094 , 0.0 , 0.0 , 0.0 , 0.0 , 

4.0 , 4334.35897436 , 3928.20512821 , 4386.15384615 , 3686.15384615 , 4382.05128205 , 4633.33333333 , 4618.97435897 , 4520.51282051 , 4021.53846154 , 4103.58974359 , 4461.53846154 , 4409.74358974 , 4213.84615385 , 3940.0 , 1723.0 , 1678.0 , 5.102 , 0.0 , 0.0 , 0.0 , 0.0 , 

5.0 , 4333.84615385 , 3926.66666667 , 4386.15384615 , 3684.1025641 , 4382.05128205 , 4634.87179487 , 4624.1025641 , 4517.94871795 , 4021.53846154 , 4103.58974359 , 4474.35897436 , 4408.71794872 , 4216.92307692 , 3945.64102564 , 1722.0 , 1678.0 , 5.11 , 0.0 , 0.0 , 0.0 , 0.0 , 

6.0 , 4334.87179487 , 3926.15384615 , 4386.66666667 , 3685.12820513 , 4382.05128205 , 4633.84615385 , 4634.87179487 , 4523.58974359 , 4021.53846154 , 4103.58974359 , 4480.51282051 , 4411.79487179 , 4216.92307692 , 3958.97435897 , 1723.0 , 1678.0 , 5.118 , 0.0 , 0.0 , 0.0 , 0.0 , 

7.0 , 4330.25641026 , 3926.15384615 , 4383.58974359 , 3686.15384615 , 4382.05128205 , 4633.33333333 , 4630.25641026 , 4518.97435897 , 4021.53846154 , 4103.58974359 , 4468.71794872 , 4411.28205128 , 4211.79487179 , 3953.33333333 , 1722.0 , 1678.0 , 5.125 , 0.0 , 0.0 , 0.0 , 0.0 , 

8.0 , 4326.15384615 , 3923.58974359 , 4380.0 , 3684.61538462 , 4381.53846154 , 4631.79487179 , 4623.07692308 , 4508.71794872 , 4021.53846154 , 4104.1025641 , 4463.58974359 , 4405.12820513 , 4209.23076923 , 3938.97435897 , 1723.0 , 1678.0 , 5.134 , 0.0 , 0.0 , 0.0 , 0.0 , 

9.0 , 4326.66666667 , 3915.8974359 , 4376.92307692 , 3675.38461538 , 4382.05128205 , 4632.82051282 , 4630.25641026 , 4518.46153846 , 4021.53846154 , 4103.58974359 , 4469.23076923 , 4399.48717949 , 4214.87179487 , 3941.02564103 , 1722.0 , 1677.0 , 5.141 , 0.0 , 0.0 , 0.0 , 0.0 , 

10.0 , 4325.12820513 , 3908.20512821 , 4374.35897436 , 3670.25641026 , 4381.53846154 , 4634.35897436 , 4636.41025641 , 4525.64102564 , 4021.53846154 , 4103.58974359 , 4468.20512821 , 4397.94871795 , 4217.94871795 , 3953.84615385 , 1722.0 , 1678.0 , 5.149 , 0.0 , 0.0 , 0.0 , 0.0 , 

11.0 , 4324.61538462 , 3908.71794872 , 4372.82051282 , 3676.92307692 , 4381.02564103 , 4633.84615385 , 4630.76923077 , 4511.28205128 , 4021.53846154 , 4104.61538462 , 4463.07692308 , 4398.46153846 , 4217.43589744 , 3958.46153846 , 1723.0 , 1676.0 , 5.157 , 0.0 , 0.0 , 0.0 , 0.0 , 

12.0 , 4330.25641026 , 3916.41025641 , 4376.41025641 , 3683.07692308 , 4382.05128205 , 4633.33333333 , 4630.76923077 , 4508.20512821 , 4021.53846154 , 4102.05128205 , 4468.20512821 , 4401.53846154 , 4217.94871795 , 3955.38461538 , 1722.0 , 1678.0 , 5.166 , 0.0 , 0.0 , 0.0 , 0.0 , 

13.0 , 4336.92307692 , 3925.12820513 , 4381.02564103 , 3684.1025641 , 4382.05128205 , 4632.30769231 , 4631.79487179 , 4521.53846154 , 4021.53846154 , 4098.46153846 , 4475.38461538 , 4407.69230769 , 4220.0 , 3958.46153846 , 1724.0 , 1676.0 , 5.172 , 0.0 , 0.0 , 0.0 , 0.0 , 

14.0 , 4335.8974359 , 3925.64102564 , 4381.53846154 , 3683.58974359 , 4380.51282051 , 4629.74358974 , 4626.15384615 , 4523.07692308 , 4021.53846154 , 4098.46153846 , 4475.38461538 , 4412.30769231 , 4222.56410256 , 3966.66666667 , 1723.0 , 1677.0 , 5.181 , 0.0 , 0.0 , 0.0 , 0.0 , 

15.0 , 4331.28205128 , 3916.92307692 , 4380.0 , 3678.46153846 , 4383.07692308 , 4630.25641026 , 4623.07692308 , 4519.48717949 , 4021.53846154 , 4099.48717949 , 4475.38461538 , 4412.82051282 , 4224.61538462 , 3967.69230769 , 1724.0 , 1676.0 , 5.188 , 0.0 , 0.0 , 0.0 , 0.0 , 

16.0 , 4329.23076923 , 3914.87179487 , 4380.0 , 3675.38461538 , 4386.15384615 , 4634.87179487 , 4627.17948718 , 4522.56410256 , 4021.53846154 , 4098.97435897 , 4475.8974359 , 4412.30769231 , 4218.46153846 , 3957.94871795 , 1722.0 , 1676.0 , 5.196 , 0.0 , 0.0 , 0.0 , 0.0 , 

17.0 , 4333.33333333 , 3922.05128205 , 4379.48717949 , 3678.46153846 , 4386.66666667 , 4633.84615385 , 4625.12820513 , 4522.05128205 , 4021.53846154 , 4098.97435897 , 4474.87179487 , 4412.82051282 , 4213.33333333 , 3954.35897436 , 1723.0 , 1676.0 , 5.204 , 0.0 , 0.0 , 0.0 , 0.0 , 

18.0 , 4337.43589744 , 3925.64102564 , 4380.51282051 , 3681.02564103 , 4385.64102564 , 4630.25641026 , 4622.56410256 , 4521.53846154 , 4021.53846154 , 4099.48717949 , 4480.0 , 4416.41025641 , 4226.15384615 , 3966.66666667 , 1722.0 , 1676.0 , 5.211 , 0.0 , 0.0 , 0.0 , 0.0 , 

19.0 , 4334.87179487 , 3922.05128205 , 4382.56410256 , 3683.07692308 , 4386.15384615 , 4631.79487179 , 4626.15384615 , 4527.17948718 , 4021.53846154 , 4099.48717949 , 4478.46153846 , 4414.87179487 , 4232.30769231 , 3971.28205128 , 1723.0 , 1676.0 , 5.219 , 0.0 , 0.0 , 0.0 , 0.0 , 

20.0 , 4329.23076923 , 3914.87179487 , 4378.97435897 , 3682.05128205 , 4386.15384615 , 4632.82051282 , 4624.1025641 , 4519.48717949 , 4021.53846154 , 4099.48717949 , 4465.64102564 , 4408.71794872 , 4219.48717949 , 3958.46153846 , 1722.0 , 1674.0 , 5.227 , 0.0 , 0.0 , 0.0 , 0.0 , 

21.0 , 4326.15384615 , 3910.76923077 , 4375.38461538 , 3680.0 , 4386.15384615 , 4630.25641026 , 4619.48717949 , 4508.20512821 , 4021.53846154 , 4099.48717949 , 4457.94871795 , 4402.56410256 , 4211.79487179 , 3951.28205128 , 1722.0 , 1675.0 , 5.235 , 0.0 , 0.0 , 0.0 , 0.0 , 

22.0 , 4326.66666667 , 3913.33333333 , 4378.97435897 , 3682.05128205 , 4386.15384615 , 4631.79487179 , 4624.61538462 , 4514.87179487 , 4021.53846154 , 4099.48717949 , 4460.51282051 , 4403.58974359 , 4215.38461538 , 3955.8974359 , 1723.0 , 1674.0 , 5.243 , 0.0 , 0.0 , 0.0 , 0.0 , 

23.0 , 4327.17948718 , 3915.38461538 , 4381.53846154 , 3682.56410256 , 4386.15384615 , 4634.35897436 , 4631.28205128 , 4524.61538462 , 4021.53846154 , 4099.48717949 , 4464.1025641 , 4408.71794872 , 4217.94871795 , 3957.43589744 , 1722.0 , 1676.0 , 5.251 , 0.0 , 0.0 , 0.0 , 0.0 , 

24.0 , 4324.61538462 , 3913.33333333 , 4379.48717949 , 3683.07692308 , 4386.15384615 , 4633.33333333 , 4631.79487179 , 4522.05128205 , 4021.53846154 , 4099.48717949 , 4465.12820513 , 4409.23076923 , 4211.79487179 , 3949.23076923 , 1723.0 , 1675.0 , 5.258 , 0.0 , 0.0 , 0.0 , 0.0 , 

25.0 , 4325.64102564 , 3914.35897436 , 4378.46153846 , 3686.15384615 , 4386.15384615 , 4634.87179487 , 4630.76923077 , 4520.51282051 , 4021.53846154 , 4099.48717949 , 4463.07692308 , 4402.56410256 , 4205.12820513 , 3942.56410256 , 1721.0 , 1676.0 , 5.266 , 0.0 , 0.0 , 0.0 , 0.0 , 

26.0 , 4327.17948718 , 3913.84615385 , 4375.8974359 , 3679.48717949 , 4386.15384615 , 4633.33333333 , 4628.20512821 , 4526.66666667 , 4021.53846154 , 4099.48717949 , 4458.46153846 , 4398.46153846 , 4201.02564103 , 3946.66666667 , 1723.0 , 1677.0 , 5.274 , 0.0 , 0.0 , 0.0 , 0.0 , 

27.0 , 4324.61538462 , 3910.25641026 , 4372.82051282 , 3673.33333333 , 4386.66666667 , 4634.87179487 , 4624.1025641 , 4526.15384615 , 4021.53846154 , 4099.48717949 , 4456.92307692 , 4401.02564103 , 4203.07692308 , 3956.92307692 , 1722.0 , 1676.0 , 5.282 , 0.0 , 0.0 , 0.0 , 0.0 , 

28.0 , 4324.61538462 , 3910.76923077 , 4377.43589744 , 3681.02564103 , 4384.61538462 , 4644.61538462 , 4633.33333333 , 4522.05128205 , 4021.53846154 , 4099.48717949 , 4466.15384615 , 4407.69230769 , 4210.76923077 , 3958.97435897 , 1723.0 , 1678.0 , 5.29 , 0.0 , 0.0 , 0.0 , 0.0 , 

29.0 , 4327.17948718 , 3911.79487179 , 4383.07692308 , 3686.66666667 , 4381.02564103 , 4643.58974359 , 4644.1025641 , 4527.17948718 , 4021.53846154 , 4099.48717949 , 4475.8974359 , 4412.82051282 , 4217.43589744 , 3958.46153846 , 1724.0 , 1676.0 , 5.297 , 0.0 , 0.0 , 0.0 , 0.0 , 

30.0 , 4327.69230769 , 3915.38461538 , 4383.58974359 , 3684.1025641 , 4380.51282051 , 4632.82051282 , 4639.48717949 , 4538.97435897 , 4021.53846154 , 4099.48717949 , 4475.38461538 , 4413.84615385 , 4220.0 , 3962.56410256 , 1725.0 , 1677.0 , 5.306 , 0.0 , 0.0 , 0.0 , 0.0 , 

31.0 , 4325.12820513 , 3910.76923077 , 4379.48717949 , 3683.07692308 , 4382.05128205 , 4630.76923077 , 4636.41025641 , 4535.38461538 , 4021.53846154 , 4099.48717949 , 4470.76923077 , 4409.74358974 , 4214.87179487 , 3960.0 , 1724.0 , 1676.0 , 5.313 , 0.0 , 0.0 , 0.0 , 0.0 , 

32.0 , 4324.61538462 , 3898.97435897 , 4377.94871795 , 3682.56410256 , 4382.05128205 , 4635.8974359 , 4641.53846154 , 4525.12820513 , 4021.53846154 , 4099.48717949 , 4473.33333333 , 4410.25641026 , 4213.84615385 , 3954.35897436 , 1724.0 , 1678.0 , 5.322 , 0.0 , 0.0 , 0.0 , 0.0 , 

33.0 , 4326.66666667 , 3900.0 , 4381.53846154 , 3683.07692308 , 4382.05128205 , 4633.84615385 , 4637.94871795 , 4531.28205128 , 4021.53846154 , 4098.97435897 , 4477.94871795 , 4415.8974359 , 4218.46153846 , 3956.41025641 , 1725.0 , 1676.0 , 5.329 , 0.0 , 0.0 , 0.0 , 0.0 , 

34.0 , 4327.69230769 , 3906.15384615 , 4384.61538462 , 3685.64102564 , 4381.53846154 , 4628.20512821 , 4628.71794872 , 4538.97435897 , 4021.53846154 , 4099.48717949 , 4474.87179487 , 4415.8974359 , 4211.28205128 , 3959.48717949 , 1724.0 , 1677.0 , 5.338 , 0.0 , 0.0 , 0.0 , 0.0 , 

35.0 , 4324.1025641 , 3898.46153846 , 4382.05128205 , 3681.02564103 , 4381.02564103 , 4632.82051282 , 4631.28205128 , 4534.87179487 , 4021.53846154 , 4100.0 , 4468.20512821 , 4411.28205128 , 4202.05128205 , 3955.8974359 , 1725.0 , 1676.0 , 5.344 , 0.0 , 0.0 , 0.0 , 0.0 , 

36.0 , 4319.48717949 , 3890.76923077 , 4380.0 , 3677.94871795 , 4381.02564103 , 4642.05128205 , 4643.07692308 , 4534.87179487 , 4021.53846154 , 4098.97435897 , 4462.05128205 , 4410.76923077 , 4207.69230769 , 3952.82051282 , 1725.0 , 1675.0 , 5.352 , 0.0 , 0.0 , 0.0 , 0.0 , 

37.0 , 4319.48717949 , 3893.84615385 , 4381.02564103 , 3680.51282051 , 4381.53846154 , 4643.07692308 , 4649.74358974 , 4541.02564103 , 4021.53846154 , 4100.0 , 4465.64102564 , 4413.33333333 , 4216.41025641 , 3956.41025641 , 1725.0 , 1676.0 , 5.36 , 0.0 , 0.0 , 0.0 , 0.0 , 

38.0 , 4320.0 , 3888.20512821 , 4379.48717949 , 3675.8974359 , 4381.02564103 , 4642.05128205 , 4648.20512821 , 4541.02564103 , 4021.02564103 , 4104.1025641 , 4474.87179487 , 4412.82051282 , 4214.35897436 , 3960.0 , 1725.0 , 1675.0 , 5.368 , 0.0 , 0.0 , 0.0 , 0.0 , 

39.0 , 4318.97435897 , 3883.58974359 , 4378.46153846 , 3673.33333333 , 4381.02564103 , 4643.07692308 , 4647.69230769 , 4538.46153846 , 4021.02564103 , 4105.12820513 , 4474.87179487 , 4412.30769231 , 4215.38461538 , 3958.97435897 , 1725.0 , 1675.0 , 5.376 , 0.0 , 0.0 , 0.0 , 0.0 , 

40.0 , 4323.07692308 , 3887.69230769 , 4380.51282051 , 3681.02564103 , 4381.53846154 , 4636.92307692 , 4648.71794872 , 4540.0 , 4021.53846154 , 4103.58974359 , 4473.33333333 , 4412.82051282 , 4220.51282051 , 3957.94871795 , 1725.0 , 1675.0 , 5.383 , 0.0 , 0.0 , 0.0 , 0.0 , 

41.0 , 4328.71794872 , 3886.66666667 , 4380.51282051 , 3683.58974359 , 4384.1025641 , 4634.87179487 , 4642.05128205 , 4540.0 , 4021.53846154 , 4103.58974359 , 4477.43589744 , 4411.28205128 , 4217.43589744 , 3960.51282051 , 1724.0 , 1674.0 , 5.391 , 0.0 , 0.0 , 0.0 , 0.0 , 

42.0 , 4327.69230769 , 3884.61538462 , 4380.51282051 , 3680.51282051 , 4384.1025641 , 4641.53846154 , 4638.97435897 , 4534.35897436 , 4020.51282051 , 4103.58974359 , 4471.79487179 , 4410.76923077 , 4214.87179487 , 3961.53846154 , 1724.0 , 1673.0 , 5.4 , 0.0 , 0.0 , 0.0 , 0.0 , 

43.0 , 4326.15384615 , 3884.1025641 , 4382.56410256 , 3681.02564103 , 4383.07692308 , 4637.94871795 , 4641.53846154 , 4532.30769231 , 4023.07692308 , 4103.07692308 , 4458.97435897 , 4410.25641026 , 4215.8974359 , 3958.97435897 , 1724.0 , 1672.0 , 5.408 , 0.0 , 0.0 , 0.0 , 0.0 , 

44.0 , 4328.20512821 , 3883.07692308 , 4382.56410256 , 3683.58974359 , 4382.56410256 , 4630.76923077 , 4637.43589744 , 4536.92307692 , 4030.76923077 , 4104.1025641 , 4464.1025641 , 4411.28205128 , 4213.84615385 , 3961.02564103 , 1725.0 , 1672.0 , 5.416 , 0.0 , 0.0 , 0.0 , 0.0 , 

45.0 , 4328.20512821 , 3881.53846154 , 4382.56410256 , 3684.61538462 , 4382.05128205 , 4631.79487179 , 4631.28205128 , 4539.48717949 , 4031.28205128 , 4104.61538462 , 4477.43589744 , 4412.30769231 , 4213.84615385 , 3968.71794872 , 1723.0 , 1672.0 , 5.424 , 0.0 , 0.0 , 0.0 , 0.0 , 

46.0 , 4329.23076923 , 3880.0 , 4384.1025641 , 3684.61538462 , 4383.07692308 , 4632.82051282 , 4630.25641026 , 4537.94871795 , 4023.07692308 , 4104.1025641 , 4474.87179487 , 4412.82051282 , 4224.61538462 , 3972.82051282 , 1724.0 , 1672.0 , 5.431 , 0.0 , 0.0 , 0.0 , 0.0 , 

47.0 , 4333.33333333 , 3881.02564103 , 4384.61538462 , 3684.1025641 , 4383.07692308 , 4633.84615385 , 4635.8974359 , 4537.94871795 , 4020.0 , 4104.1025641 , 4473.33333333 , 4413.33333333 , 4230.25641026 , 3970.76923077 , 1725.0 , 1675.0 , 5.439 , 0.0 , 0.0 , 0.0 , 0.0 , 

48.0 , 4334.35897436 , 3888.71794872 , 4388.71794872 , 3689.23076923 , 4381.53846154 , 4639.48717949 , 4641.53846154 , 4538.46153846 , 4023.07692308 , 4104.61538462 , 4483.07692308 , 4414.35897436 , 4221.53846154 , 3971.79487179 , 1725.0 , 1674.0 , 5.447 , 0.0 , 0.0 , 0.0 , 0.0 , 

49.0 , 4335.38461538 , 3895.38461538 , 4394.87179487 , 3696.92307692 , 4382.05128205 , 4642.05128205 , 4641.53846154 , 4537.94871795 , 4023.07692308 , 4104.1025641 , 4484.61538462 , 4414.87179487 , 4220.0 , 3973.84615385 , 1725.0 , 1676.0 , 5.455 , 0.0 , 0.0 , 0.0 , 0.0 , 

50.0 , 4335.8974359 , 3891.28205128 , 4391.79487179 , 3694.87179487 , 4383.07692308 , 4638.97435897 , 4636.41025641 , 4538.46153846 , 4020.51282051 , 4104.61538462 , 4477.43589744 , 4412.30769231 , 4227.69230769 , 3972.30769231 , 1725.0 , 1676.0 , 5.463 , 0.0 , 0.0 , 0.0 , 0.0 , 

51.0 , 4334.87179487 , 3885.12820513 , 4389.74358974 , 3689.23076923 , 4382.05128205 , 4638.46153846 , 4638.97435897 , 4538.97435897 , 4020.51282051 , 4104.1025641 , 4476.41025641 , 4414.87179487 , 4231.28205128 , 3972.82051282 , 1726.0 , 1677.0 , 5.47 , 0.0 , 0.0 , 0.0 , 0.0 , 

52.0 , 4335.38461538 , 3882.05128205 , 4396.92307692 , 3685.64102564 , 4383.07692308 , 4645.64102564 , 4645.12820513 , 4539.48717949 , 4026.15384615 , 4104.61538462 , 4479.48717949 , 4420.51282051 , 4228.20512821 , 3976.41025641 , 1726.0 , 1676.0 , 5.478 , 0.0 , 0.0 , 0.0 , 0.0 , 

53.0 , 4336.41025641 , 3881.02564103 , 4397.94871795 , 3684.61538462 , 4384.61538462 , 4650.25641026 , 4644.61538462 , 4545.12820513 , 4029.74358974 , 4104.1025641 , 4479.48717949 , 4418.46153846 , 4223.58974359 , 3974.87179487 , 1726.0 , 1678.0 , 5.485 , 0.0 , 0.0 , 0.0 , 0.0 , 

54.0 , 4331.79487179 , 3880.0 , 4388.71794872 , 3686.15384615 , 4383.07692308 , 4649.23076923 , 4643.07692308 , 4549.23076923 , 4024.61538462 , 4104.61538462 , 4475.8974359 , 4412.82051282 , 4215.8974359 , 3969.23076923 , 1727.0 , 1677.0 , 5.493 , 0.0 , 0.0 , 0.0 , 0.0 , 

55.0 , 4332.82051282 , 3886.15384615 , 4389.23076923 , 3691.79487179 , 4382.56410256 , 4647.17948718 , 4645.12820513 , 4543.58974359 , 4020.0 , 4104.61538462 , 4472.82051282 , 4415.38461538 , 4212.30769231 , 3969.74358974 , 1726.0 , 1678.0 , 5.501 , 0.0 , 0.0 , 0.0 , 0.0 , 

56.0 , 4335.38461538 , 3894.87179487 , 4393.33333333 , 3693.33333333 , 4383.07692308 , 4639.48717949 , 4642.56410256 , 4536.92307692 , 4021.02564103 , 4104.61538462 , 4475.8974359 , 4421.53846154 , 4216.41025641 , 3971.79487179 , 1726.0 , 1678.0 , 5.509 , 0.0 , 0.0 , 0.0 , 0.0 , 

57.0 , 4328.71794872 , 3896.41025641 , 4389.74358974 , 3685.64102564 , 4383.07692308 , 4629.74358974 , 4634.87179487 , 4536.92307692 , 4022.05128205 , 4104.61538462 , 4477.94871795 , 4418.97435897 , 4215.38461538 , 3967.17948718 , 1727.0 , 1677.0 , 5.516 , 0.0 , 0.0 , 0.0 , 0.0 , 

58.0 , 4326.66666667 , 3893.33333333 , 4385.64102564 , 3680.51282051 , 4383.07692308 , 4631.79487179 , 4635.38461538 , 4537.43589744 , 4021.53846154 , 4104.61538462 , 4474.87179487 , 4416.41025641 , 4216.92307692 , 3968.71794872 , 1726.0 , 1678.0 , 5.524 , 0.0 , 0.0 , 0.0 , 0.0 , 

59.0 , 4332.82051282 , 3896.41025641 , 4386.66666667 , 3686.66666667 , 4383.07692308 , 4642.05128205 , 4641.53846154 , 4538.46153846 , 4022.05128205 , 4104.61538462 , 4482.05128205 , 4421.53846154 , 4224.61538462 , 3974.35897436 , 1726.0 , 1677.0 , 5.532 , 0.0 , 0.0 , 0.0 , 0.0 , 

60.0 , 4335.8974359 , 3907.17948718 , 4390.25641026 , 3693.33333333 , 4383.07692308 , 4645.64102564 , 4639.48717949 , 4540.51282051 , 4022.56410256 , 4104.1025641 , 4491.79487179 , 4429.74358974 , 4226.66666667 , 3975.8974359 , 1726.0 , 1678.0 , 5.54 , 0.0 , 0.0 , 0.0 , 0.0 , 

61.0 , 4336.41025641 , 3912.30769231 , 4391.79487179 , 3694.35897436 , 4383.07692308 , 4645.12820513 , 4639.48717949 , 4540.51282051 , 4022.56410256 , 4104.61538462 , 4484.1025641 , 4428.71794872 , 4221.02564103 , 3974.87179487 , 1726.0 , 1677.0 , 5.549 , 0.0 , 0.0 , 0.0 , 0.0 , 

62.0 , 4332.30769231 , 3902.05128205 , 4388.71794872 , 3689.74358974 , 4382.56410256 , 4647.17948718 , 4645.64102564 , 4541.02564103 , 4022.56410256 , 4104.1025641 , 4471.79487179 , 4422.56410256 , 4215.38461538 , 3968.20512821 , 1725.0 , 1677.0 , 5.555 , 0.0 , 0.0 , 0.0 , 0.0 , 

63.0 , 4326.15384615 , 3892.82051282 , 4384.61538462 , 3684.1025641 , 4382.05128205 , 4650.76923077 , 4644.61538462 , 4543.07692308 , 4022.56410256 , 4104.61538462 , 4474.87179487 , 4424.1025641 , 4218.97435897 , 3961.02564103 , 1726.0 , 1677.0 , 5.563 , 0.0 , 0.0 , 0.0 , 0.0 , 

64.0 , 4329.23076923 , 3896.92307692 , 4384.1025641 , 3684.1025641 , 4381.53846154 , 4645.64102564 , 4638.97435897 , 4542.56410256 , 4022.56410256 , 4104.1025641 , 4478.46153846 , 4424.61538462 , 4220.0 , 3962.56410256 , 1725.0 , 1678.0 , 5.571 , 0.0 , 0.0 , 0.0 , 0.0 , 

65.0 , 4331.28205128 , 3898.46153846 , 4382.56410256 , 3686.66666667 , 4383.07692308 , 4633.84615385 , 4640.0 , 4537.43589744 , 4022.56410256 , 4104.61538462 , 4468.20512821 , 4416.92307692 , 4206.66666667 , 3960.0 , 1726.0 , 1678.0 , 5.579 , 0.0 , 0.0 , 0.0 , 0.0 , 

66.0 , 4325.64102564 , 3894.87179487 , 4378.97435897 , 3686.15384615 , 4385.64102564 , 4635.38461538 , 4643.58974359 , 4535.38461538 , 4022.56410256 , 4104.1025641 , 4464.61538462 , 4411.28205128 , 4198.97435897 , 3952.30769231 , 1724.0 , 1677.0 , 5.587 , 0.0 , 0.0 , 0.0 , 0.0 , 

67.0 , 4324.1025641 , 3892.82051282 , 4381.02564103 , 3683.58974359 , 4384.61538462 , 4644.61538462 , 4643.58974359 , 4537.94871795 , 4022.56410256 , 4104.61538462 , 4472.82051282 , 4411.28205128 , 4211.79487179 , 3957.94871795 , 1725.0 , 1678.0 , 5.595 , 0.0 , 0.0 , 0.0 , 0.0 , 

68.0 , 4327.17948718 , 3891.28205128 , 4384.1025641 , 3685.12820513 , 4382.05128205 , 4648.71794872 , 4638.97435897 , 4537.94871795 , 4022.56410256 , 4104.1025641 , 4475.8974359 , 4417.94871795 , 4222.05128205 , 3966.66666667 , 1725.0 , 1676.0 , 5.602 , 0.0 , 0.0 , 0.0 , 0.0 , 

69.0 , 4329.23076923 , 3893.84615385 , 4384.1025641 , 3691.79487179 , 4383.07692308 , 4649.23076923 , 4640.0 , 4535.38461538 , 4022.56410256 , 4104.61538462 , 4472.82051282 , 4425.12820513 , 4217.43589744 , 3964.61538462 , 1724.0 , 1677.0 , 5.61 , 0.0 , 0.0 , 0.0 , 0.0 , 

70.0 , 4333.84615385 , 3893.84615385 , 4383.07692308 , 3692.82051282 , 4384.61538462 , 4644.1025641 , 4642.56410256 , 4535.38461538 , 4022.56410256 , 4104.61538462 , 4472.82051282 , 4422.56410256 , 4215.38461538 , 3963.07692308 , 1725.0 , 1676.0 , 5.618 , 0.0 , 0.0 , 0.0 , 0.0 , 

71.0 , 4334.35897436 , 3888.71794872 , 4384.61538462 , 3687.17948718 , 4383.07692308 , 4635.8974359 , 4636.92307692 , 4534.87179487 , 4022.56410256 , 4104.61538462 , 4471.79487179 , 4421.02564103 , 4216.92307692 , 3969.23076923 , 1723.0 , 1677.0 , 5.626 , 0.0 , 0.0 , 0.0 , 0.0 , 

72.0 , 4334.87179487 , 3888.71794872 , 4387.17948718 , 3686.15384615 , 4382.56410256 , 4636.92307692 , 4632.82051282 , 4533.33333333 , 4022.56410256 , 4104.61538462 , 4474.35897436 , 4429.74358974 , 4217.43589744 , 3973.84615385 , 1724.0 , 1678.0 , 5.634 , 0.0 , 0.0 , 0.0 , 0.0 , 

73.0 , 4334.87179487 , 3888.20512821 , 4389.74358974 , 3687.69230769 , 4383.07692308 , 4644.61538462 , 4641.53846154 , 4534.87179487 , 4022.05128205 , 4104.61538462 , 4481.02564103 , 4431.79487179 , 4218.46153846 , 3970.25641026 , 1723.0 , 1678.0 , 5.641 , 0.0 , 0.0 , 0.0 , 0.0 , 

74.0 , 4329.74358974 , 3881.02564103 , 4390.25641026 , 3684.1025641 , 4383.07692308 , 4645.12820513 , 4648.20512821 , 4537.43589744 , 4022.56410256 , 4104.61538462 , 4476.41025641 , 4427.69230769 , 4216.92307692 , 3970.76923077 , 1724.0 , 1678.0 , 5.649 , 0.0 , 0.0 , 0.0 , 0.0 , 

75.0 , 4329.74358974 , 3878.46153846 , 4386.15384615 , 3684.1025641 , 4383.07692308 , 4642.05128205 , 4646.15384615 , 4539.48717949 , 4022.56410256 , 4104.1025641 , 4478.46153846 , 4429.23076923 , 4215.8974359 , 3973.84615385 , 1723.0 , 1679.0 , 5.657 , 0.0 , 0.0 , 0.0 , 0.0 , 

76.0 , 4333.84615385 , 3878.46153846 , 4380.51282051 , 3685.64102564 , 4382.56410256 , 4642.56410256 , 4645.64102564 , 4541.53846154 , 4020.51282051 , 4104.61538462 , 4486.66666667 , 4428.71794872 , 4216.41025641 , 3967.17948718 , 1724.0 , 1678.0 , 5.665 , 0.0 , 0.0 , 0.0 , 0.0 , 

77.0 , 4328.71794872 , 3874.87179487 , 4381.02564103 , 3683.07692308 , 4383.07692308 , 4645.12820513 , 4646.66666667 , 4541.53846154 , 4020.0 , 4104.1025641 , 4479.48717949 , 4427.69230769 , 4217.43589744 , 3963.07692308 , 1723.0 , 1677.0 , 5.674 , 0.0 , 0.0 , 0.0 , 0.0 , 

78.0 , 4324.61538462 , 3877.43589744 , 4384.1025641 , 3683.58974359 , 4383.07692308 , 4647.69230769 , 4646.66666667 , 4540.0 , 4022.05128205 , 4104.61538462 , 4471.28205128 , 4428.20512821 , 4218.97435897 , 3967.69230769 , 1723.0 , 1677.0 , 5.681 , 0.0 , 0.0 , 0.0 , 0.0 , 

79.0 , 4328.20512821 , 3876.92307692 , 4383.58974359 , 3683.07692308 , 4382.05128205 , 4645.12820513 , 4646.15384615 , 4540.51282051 , 4021.53846154 , 4104.1025641 , 4473.33333333 , 4422.56410256 , 4215.38461538 , 3965.12820513 , 1724.0 , 1675.0 , 5.689 , 0.0 , 0.0 , 0.0 , 0.0 , 

80.0 , 4326.15384615 , 3866.66666667 , 4378.97435897 , 3678.46153846 , 4382.05128205 , 4642.05128205 , 4645.12820513 , 4541.53846154 , 4020.51282051 , 4104.61538462 , 4470.25641026 , 4418.46153846 , 4209.74358974 , 3956.41025641 , 1724.0 , 1677.0 , 5.696 , 0.0 , 0.0 , 0.0 , 0.0 , 

81.0 , 4322.56410256 , 3866.15384615 , 4378.46153846 , 3680.0 , 4384.1025641 , 4646.66666667 , 4646.66666667 , 4541.02564103 , 4020.51282051 , 4104.1025641 , 4471.79487179 , 4424.61538462 , 4214.87179487 , 3959.48717949 , 1724.0 , 1676.0 , 5.704 , 0.0 , 0.0 , 0.0 , 0.0 , 

82.0 , 4331.79487179 , 3878.97435897 , 4389.23076923 , 3684.61538462 , 4384.1025641 , 4646.66666667 , 4646.66666667 , 4542.05128205 , 4021.02564103 , 4104.61538462 , 4489.74358974 , 4432.82051282 , 4233.33333333 , 3972.82051282 , 1724.0 , 1676.0 , 5.712 , 0.0 , 0.0 , 0.0 , 0.0 , 

83.0 , 4337.43589744 , 3882.05128205 , 4394.87179487 , 3685.12820513 , 4382.05128205 , 4639.48717949 , 4641.02564103 , 4541.53846154 , 4020.51282051 , 4104.1025641 , 4495.8974359 , 4432.82051282 , 4235.38461538 , 3976.92307692 , 1724.0 , 1675.0 , 5.722 , 0.0 , 0.0 , 0.0 , 0.0 , 

84.0 , 4330.76923077 , 3869.74358974 , 4384.1025641 , 3682.56410256 , 4381.53846154 , 4641.53846154 , 4639.48717949 , 4541.53846154 , 4020.51282051 , 4104.61538462 , 4483.07692308 , 4428.20512821 , 4215.8974359 , 3965.64102564 , 1723.0 , 1674.0 , 5.728 , 0.0 , 0.0 , 0.0 , 0.0 , 

85.0 , 4327.17948718 , 3861.53846154 , 4380.0 , 3682.05128205 , 4382.05128205 , 4649.23076923 , 4646.66666667 , 4547.69230769 , 4020.51282051 , 4104.61538462 , 4482.05128205 , 4426.66666667 , 4214.87179487 , 3958.97435897 , 1724.0 , 1675.0 , 5.735 , 0.0 , 0.0 , 0.0 , 0.0 , 

86.0 , 4336.41025641 , 3868.20512821 , 4393.33333333 , 3686.15384615 , 4382.05128205 , 4648.71794872 , 4650.25641026 , 4556.92307692 , 4020.51282051 , 4104.61538462 , 4504.1025641 , 4436.41025641 , 4235.38461538 , 3976.41025641 , 1723.0 , 1675.0 , 5.745 , 0.0 , 0.0 , 0.0 , 0.0 , 

87.0 , 4343.58974359 , 3877.43589744 , 4401.02564103 , 3694.87179487 , 4382.05128205 , 4645.64102564 , 4647.17948718 , 4554.35897436 , 4020.51282051 , 4104.61538462 , 4513.33333333 , 4447.69230769 , 4241.53846154 , 3989.23076923 , 1724.0 , 1676.0 , 5.751 , 0.0 , 0.0 , 0.0 , 0.0 , 

88.0 , 4342.05128205 , 3878.97435897 , 4395.38461538 , 3698.46153846 , 4382.56410256 , 4645.64102564 , 4646.66666667 , 4540.51282051 , 4020.51282051 , 4104.61538462 , 4495.8974359 , 4442.56410256 , 4232.30769231 , 3979.48717949 , 1724.0 , 1676.0 , 5.76 , 0.0 , 0.0 , 0.0 , 0.0 , 

89.0 , 4338.97435897 , 3876.41025641 , 4393.84615385 , 3697.94871795 , 4383.07692308 , 4646.66666667 , 4648.71794872 , 4533.33333333 , 4020.51282051 , 4104.61538462 , 4483.07692308 , 4430.76923077 , 4231.79487179 , 3971.79487179 , 1724.0 , 1677.0 , 5.767 , 0.0 , 0.0 , 0.0 , 0.0 , 

90.0 , 4337.43589744 , 3877.94871795 , 4396.92307692 , 3698.46153846 , 4382.56410256 , 4647.17948718 , 4648.20512821 , 4537.43589744 , 4020.51282051 , 4104.1025641 , 4487.17948718 , 4426.66666667 , 4234.35897436 , 3975.38461538 , 1725.0 , 1675.0 , 5.774 , 0.0 , 0.0 , 0.0 , 0.0 , 

91.0 , 4335.38461538 , 3879.48717949 , 4393.33333333 , 3696.41025641 , 4382.56410256 , 4645.64102564 , 4647.17948718 , 4540.51282051 , 4020.51282051 , 4104.61538462 , 4491.28205128 , 4428.71794872 , 4231.28205128 , 3973.84615385 , 1723.0 , 1677.0 , 5.782 , 0.0 , 0.0 , 0.0 , 0.0 , 

92.0 , 4333.84615385 , 3874.35897436 , 4388.71794872 , 3691.28205128 , 4382.56410256 , 4646.66666667 , 4647.17948718 , 4538.46153846 , 4020.51282051 , 4104.1025641 , 4488.71794872 , 4426.66666667 , 4228.71794872 , 3967.69230769 , 1725.0 , 1676.0 , 5.79 , 0.0 , 0.0 , 0.0 , 0.0 , 

93.0 , 4335.38461538 , 3869.74358974 , 4392.82051282 , 3690.76923077 , 4382.56410256 , 4649.74358974 , 4645.64102564 , 4538.46153846 , 4020.51282051 , 4104.61538462 , 4485.64102564 , 4423.07692308 , 4230.76923077 , 3970.25641026 , 1723.0 , 1677.0 , 5.798 , 0.0 , 0.0 , 0.0 , 0.0 , 

94.0 , 4341.53846154 , 3873.33333333 , 4398.46153846 , 3695.38461538 , 4382.56410256 , 4645.64102564 , 4643.58974359 , 4540.51282051 , 4020.51282051 , 4104.1025641 , 4487.17948718 , 4422.05128205 , 4230.76923077 , 3975.38461538 , 1724.0 , 1677.0 , 5.806 , 0.0 , 0.0 , 0.0 , 0.0 , 

95.0 , 4345.64102564 , 3881.53846154 , 4397.94871795 , 3698.97435897 , 4382.56410256 , 4643.07692308 , 4646.15384615 , 4541.02564103 , 4020.51282051 , 4104.61538462 , 4496.92307692 , 4428.20512821 , 4228.71794872 , 3975.8974359 , 1724.0 , 1677.0 , 5.814 , 0.0 , 0.0 , 0.0 , 0.0 , 

96.0 , 4344.1025641 , 3877.94871795 , 4398.97435897 , 3696.92307692 , 4382.56410256 , 4647.69230769 , 4649.74358974 , 4542.05128205 , 4020.51282051 , 4104.1025641 , 4493.33333333 , 4430.76923077 , 4228.71794872 , 3975.38461538 , 1724.0 , 1677.0 , 5.821 , 0.0 , 0.0 , 0.0 , 0.0 , 

97.0 , 4341.02564103 , 3867.17948718 , 4397.94871795 , 3692.30769231 , 4382.56410256 , 4649.23076923 , 4644.61538462 , 4538.97435897 , 4020.51282051 , 4104.61538462 , 4474.87179487 , 4420.51282051 , 4229.23076923 , 3971.79487179 , 1724.0 , 1676.0 , 5.83 , 0.0 , 0.0 , 0.0 , 0.0 , 

98.0 , 4341.02564103 , 3870.25641026 , 4391.28205128 , 3691.79487179 , 4382.56410256 , 4645.12820513 , 4636.41025641 , 4534.87179487 , 4020.51282051 , 4104.1025641 , 4477.94871795 , 4412.82051282 , 4229.74358974 , 3967.17948718 , 1724.0 , 1676.0 , 5.838 , 0.0 , 0.0 , 0.0 , 0.0 , 

99.0 , 4342.05128205 , 3878.97435897 , 4391.28205128 , 3694.87179487 , 4382.56410256 , 4646.15384615 , 4636.41025641 , 4535.38461538 , 4020.51282051 , 4104.61538462 , 4493.33333333 , 4412.30769231 , 4229.74358974 , 3967.17948718 , 1724.0 , 1676.0 , 5.845 , 0.0 , 0.0 , 0.0 , 0.0 , 

100.0 , 4341.02564103 , 3879.48717949 , 4396.92307692 , 3696.41025641 , 4382.56410256 , 4648.71794872 , 4640.51282051 , 4537.43589744 , 4020.0 , 4104.61538462 , 4489.74358974 , 4414.35897436 , 4230.76923077 , 3970.25641026 , 1724.0 , 1676.0 , 5.853 , 0.0 , 0.0 , 0.0 , 0.0 , 

101.0 , 4341.02564103 , 3877.43589744 , 4398.46153846 , 3698.97435897 , 4382.56410256 , 4650.25641026 , 4643.07692308 , 4537.94871795 , 4021.02564103 , 4104.61538462 , 4484.1025641 , 4423.07692308 , 4232.82051282 , 3973.33333333 , 1724.0 , 1675.0 , 5.861 , 0.0 , 0.0 , 0.0 , 0.0 , 

102.0 , 4344.1025641 , 3880.0 , 4397.43589744 , 3700.51282051 , 4383.07692308 , 4648.71794872 , 4647.17948718 , 4539.48717949 , 4020.0 , 4104.61538462 , 4491.79487179 , 4429.74358974 , 4232.30769231 , 3976.92307692 , 1724.0 , 1675.0 , 5.868 , 0.0 , 0.0 , 0.0 , 0.0 , 

103.0 , 4343.58974359 , 3880.0 , 4396.41025641 , 3696.92307692 , 4383.07692308 , 4641.53846154 , 4647.17948718 , 4539.48717949 , 4019.48717949 , 4104.61538462 , 4493.33333333 , 4421.53846154 , 4229.23076923 , 3974.87179487 , 1724.0 , 1674.0 , 5.876 , 0.0 , 0.0 , 0.0 , 0.0 , 

104.0 , 4343.58974359 , 3875.8974359 , 4395.8974359 , 3695.38461538 , 4383.07692308 , 4638.46153846 , 4640.51282051 , 4536.92307692 , 4025.64102564 , 4104.61538462 , 4489.23076923 , 4416.92307692 , 4230.76923077 , 3974.35897436 , 1724.0 , 1674.0 , 5.885 , 0.0 , 0.0 , 0.0 , 0.0 , 

105.0 , 4349.74358974 , 3875.8974359 , 4398.97435897 , 3697.94871795 , 4383.07692308 , 4645.12820513 , 4640.51282051 , 4538.97435897 , 4030.76923077 , 4104.1025641 , 4494.87179487 , 4426.15384615 , 4234.35897436 , 3981.53846154 , 1723.0 , 1674.0 , 5.893 , 0.0 , 0.0 , 0.0 , 0.0 , 

106.0 , 4351.28205128 , 3878.46153846 , 4402.05128205 , 3697.94871795 , 4383.07692308 , 4645.64102564 , 4644.1025641 , 4540.51282051 , 4029.23076923 , 4104.61538462 , 4497.43589744 , 4430.25641026 , 4236.92307692 , 3981.02564103 , 1723.0 , 1675.0 , 5.901 , 0.0 , 0.0 , 0.0 , 0.0 , 

107.0 , 4345.12820513 , 3876.41025641 , 4398.46153846 , 3697.43589744 , 4383.07692308 , 4641.53846154 , 4641.02564103 , 4534.87179487 , 4028.20512821 , 4104.1025641 , 4488.20512821 , 4426.66666667 , 4233.33333333 , 3975.38461538 , 1723.0 , 1674.0 , 5.907 , 0.0 , 0.0 , 0.0 , 0.0 , 

108.0 , 4340.0 , 3867.69230769 , 4396.41025641 , 3695.8974359 , 4382.56410256 , 4650.76923077 , 4643.07692308 , 4533.84615385 , 4030.25641026 , 4104.61538462 , 4477.94871795 , 4421.02564103 , 4222.56410256 , 3970.76923077 , 1723.0 , 1676.0 , 5.915 , 0.0 , 0.0 , 0.0 , 0.0 , 

109.0 , 4335.38461538 , 3864.1025641 , 4395.8974359 , 3690.25641026 , 4382.56410256 , 4652.82051282 , 4643.58974359 , 4539.48717949 , 4029.23076923 , 4104.1025641 , 4472.82051282 , 4412.82051282 , 4214.87179487 , 3961.02564103 , 1723.0 , 1675.0 , 5.923 , 0.0 , 0.0 , 0.0 , 0.0 , 

110.0 , 4334.35897436 , 3866.15384615 , 4395.38461538 , 3688.20512821 , 4383.58974359 , 4635.38461538 , 4635.8974359 , 4533.84615385 , 4028.20512821 , 4104.61538462 , 4476.92307692 , 4407.69230769 , 4213.84615385 , 3958.97435897 , 1722.0 , 1677.0 , 5.932 , 0.0 , 0.0 , 0.0 , 0.0 , 

111.0 , 4341.02564103 , 3866.66666667 , 4397.43589744 , 3695.38461538 , 4383.07692308 , 4632.30769231 , 4632.30769231 , 4527.69230769 , 4028.71794872 , 4104.1025641 , 4487.17948718 , 4412.82051282 , 4222.56410256 , 3971.79487179 , 1724.0 , 1675.0 , 5.939 , 0.0 , 0.0 , 0.0 , 0.0 , 

112.0 , 4344.61538462 , 3864.61538462 , 4400.51282051 , 3698.46153846 , 4382.05128205 , 4642.56410256 , 4633.33333333 , 4534.87179487 , 4029.23076923 , 4104.61538462 , 4492.82051282 , 4420.51282051 , 4232.82051282 , 3978.97435897 , 1723.0 , 1675.0 , 5.947 , 0.0 , 0.0 , 0.0 , 0.0 , 

113.0 , 4341.02564103 , 3861.53846154 , 4397.43589744 , 3690.25641026 , 4383.07692308 , 4641.53846154 , 4634.87179487 , 4534.87179487 , 4028.20512821 , 4104.1025641 , 4491.28205128 , 4417.43589744 , 4225.64102564 , 3971.79487179 , 1724.0 , 1676.0 , 5.954 , 0.0 , 0.0 , 0.0 , 0.0 , 

114.0 , 4334.87179487 , 3859.48717949 , 4388.71794872 , 3682.05128205 , 4384.1025641 , 4637.94871795 , 4638.46153846 , 4524.61538462 , 4028.71794872 , 4104.61538462 , 4483.07692308 , 4407.69230769 , 4211.79487179 , 3960.51282051 , 1724.0 , 1675.0 , 5.962 , 0.0 , 0.0 , 0.0 , 0.0 , 

115.0 , 4332.82051282 , 3861.02564103 , 4387.69230769 , 3683.07692308 , 4383.07692308 , 4640.51282051 , 4638.46153846 , 4525.12820513 , 4029.23076923 , 4104.61538462 , 4474.87179487 , 4405.64102564 , 4214.35897436 , 3958.97435897 , 1723.0 , 1676.0 , 5.971 , 0.0 , 0.0 , 0.0 , 0.0 , 

116.0 , 4335.8974359 , 3863.07692308 , 4396.41025641 , 3689.23076923 , 4382.56410256 , 4641.53846154 , 4631.28205128 , 4527.17948718 , 4024.1025641 , 4104.61538462 , 4474.35897436 , 4412.82051282 , 4221.53846154 , 3963.07692308 , 1724.0 , 1676.0 , 5.978 , 0.0 , 0.0 , 0.0 , 0.0 , 

117.0 , 4337.94871795 , 3863.58974359 , 4398.46153846 , 3689.74358974 , 4383.07692308 , 4643.07692308 , 4634.35897436 , 4523.58974359 , 4020.51282051 , 4104.61538462 , 4477.43589744 , 4413.84615385 , 4217.94871795 , 3960.51282051 , 1724.0 , 1677.0 , 5.986 , 0.0 , 0.0 , 0.0 , 0.0 , 

118.0 , 4339.48717949 , 3869.74358974 , 4394.35897436 , 3689.23076923 , 4383.07692308 , 4649.74358974 , 4647.17948718 , 4532.30769231 , 4020.51282051 , 4104.61538462 , 4482.05128205 , 4413.33333333 , 4222.05128205 , 3963.07692308 , 1723.0 , 1676.0 , 5.993 , 0.0 , 0.0 , 0.0 , 0.0 , 

119.0 , 4341.02564103 , 3877.94871795 , 4395.8974359 , 3691.79487179 , 4383.07692308 , 4651.79487179 , 4646.66666667 , 4542.56410256 , 4023.07692308 , 4104.1025641 , 4490.76923077 , 4414.87179487 , 4233.84615385 , 3974.87179487 , 1724.0 , 1678.0 , 6.001 , 0.0 , 0.0 , 0.0 , 0.0 , 

120.0 , 4336.92307692 , 3877.43589744 , 4397.43589744 , 3688.71794872 , 4383.07692308 , 4646.15384615 , 4636.41025641 , 4533.33333333 , 4026.66666667 , 4104.61538462 , 4494.87179487 , 4414.87179487 , 4233.33333333 , 3970.25641026 , 1724.0 , 1676.0 , 6.009 , 0.0 , 0.0 , 0.0 , 0.0 , 

121.0 , 4331.79487179 , 3874.35897436 , 4395.8974359 , 3685.12820513 , 4383.07692308 , 4637.43589744 , 4631.28205128 , 4525.64102564 , 4025.64102564 , 4105.12820513 , 4488.20512821 , 4411.79487179 , 4220.51282051 , 3957.94871795 , 1723.0 , 1678.0 , 6.017 , 0.0 , 0.0 , 0.0 , 0.0 , 

122.0 , 4333.84615385 , 3877.43589744 , 4395.8974359 , 3686.66666667 , 4383.07692308 , 4633.33333333 , 4631.79487179 , 4533.33333333 , 4020.0 , 4101.02564103 , 4484.1025641 , 4411.79487179 , 4218.46153846 , 3958.97435897 , 1725.0 , 1678.0 , 6.025 , 0.0 , 0.0 , 0.0 , 0.0 , 

123.0 , 4332.82051282 , 3879.48717949 , 4395.38461538 , 3686.15384615 , 4383.07692308 , 4636.41025641 , 4636.92307692 , 4538.46153846 , 4017.43589744 , 4097.94871795 , 4486.15384615 , 4410.76923077 , 4220.51282051 , 3960.0 , 1723.0 , 1678.0 , 6.033 , 0.0 , 0.0 , 0.0 , 0.0 , 

124.0 , 4331.79487179 , 3884.61538462 , 4394.35897436 , 3684.1025641 , 4383.07692308 , 4641.53846154 , 4641.53846154 , 4535.38461538 , 4024.1025641 , 4098.97435897 , 4487.17948718 , 4409.23076923 , 4215.8974359 , 3962.56410256 , 1725.0 , 1678.0 , 6.04 , 0.0 , 0.0 , 0.0 , 0.0 , 

125.0 , 4337.43589744 , 3893.84615385 , 4395.8974359 , 3685.64102564 , 4383.07692308 , 4645.12820513 , 4635.8974359 , 4534.35897436 , 4028.71794872 , 4099.48717949 , 4487.69230769 , 4411.79487179 , 4220.51282051 , 3972.30769231 , 1724.0 , 1677.0 , 6.048 , 0.0 , 0.0 , 0.0 , 0.0 , 

126.0 , 4337.43589744 , 3892.82051282 , 4397.94871795 , 3685.64102564 , 4383.07692308 , 4645.64102564 , 4630.25641026 , 4535.38461538 , 4023.58974359 , 4097.94871795 , 4486.15384615 , 4413.33333333 , 4232.30769231 , 3973.84615385 , 1724.0 , 1678.0 , 6.056 , 0.0 , 0.0 , 0.0 , 0.0 , 

127.0 , 4335.8974359 , 3888.20512821 , 4397.43589744 , 3686.66666667 , 4383.07692308 , 4644.1025641 , 4638.46153846 , 4537.43589744 , 4020.51282051 , 4098.46153846 , 4486.66666667 , 4412.30769231 , 4232.82051282 , 3970.25641026 , 1725.0 , 1677.0 , 6.064 , 0.0 , 0.0 , 0.0 , 0.0 , 

128.0 , 4341.02564103 , 3892.30769231 , 4399.48717949 , 3691.79487179 , 4383.07692308 , 4641.02564103 , 4643.58974359 , 4540.0 , 4021.02564103 , 4098.97435897 , 4492.30769231 , 4413.33333333 , 4230.25641026 , 3973.33333333 , 1724.0 , 1678.0 , 6.072 , 0.0 , 0.0 , 0.0 , 0.0 , 

0.0 , 4345.12820513 , 3896.41025641 , 4404.61538462 , 3692.30769231 , 4383.07692308 , 4634.87179487 , 4637.94871795 , 4538.97435897 , 4020.51282051 , 4098.46153846 , 4494.87179487 , 4415.8974359 , 4234.35897436 , 3976.92307692 , 1725.0 , 1677.0 , 6.08 , 0.0 , 0.0 , 0.0 , 0.0 , 

1.0 , 4343.07692308 , 3894.35897436 , 4406.15384615 , 3690.76923077 , 4382.56410256 , 4634.87179487 , 4630.76923077 , 4535.8974359 , 4023.58974359 , 4098.46153846 , 4490.76923077 , 4415.38461538 , 4232.82051282 , 3975.38461538 , 1724.0 , 1677.0 , 6.088 , 0.0 , 0.0 , 0.0 , 0.0 , 

2.0 , 4342.05128205 , 3894.87179487 , 4403.07692308 , 3694.87179487 , 4381.53846154 , 4643.07692308 , 4629.74358974 , 4535.38461538 , 4027.69230769 , 4098.46153846 , 4489.74358974 , 4415.38461538 , 4231.79487179 , 3975.8974359 , 1724.0 , 1676.0 , 6.096 , 0.0 , 0.0 , 0.0 , 0.0 , 

3.0 , 4343.58974359 , 3898.46153846 , 4399.48717949 , 3695.38461538 , 4382.05128205 , 4647.17948718 , 4637.94871795 , 4536.41025641 , 4023.58974359 , 4098.46153846 , 4494.35897436 , 4415.8974359 , 4236.41025641 , 3977.43589744 , 1723.0 , 1678.0 , 6.104 , 0.0 , 0.0 , 0.0 , 0.0 , 

4.0 , 4340.51282051 , 3896.92307692 , 4396.92307692 , 3685.64102564 , 4382.56410256 , 4643.07692308 , 4638.97435897 , 4535.38461538 , 4020.51282051 , 4098.46153846 , 4492.82051282 , 4411.28205128 , 4228.20512821 , 3974.87179487 , 1725.0 , 1677.0 , 6.112 , 0.0 , 0.0 , 0.0 , 0.0 , 

5.0 , 4337.94871795 , 3895.8974359 , 4394.87179487 , 3684.1025641 , 4382.56410256 , 4640.51282051 , 4635.8974359 , 4534.87179487 , 4022.56410256 , 4098.46153846 , 4485.12820513 , 4409.23076923 , 4220.0 , 3971.28205128 , 1723.0 , 1677.0 , 6.12 , 0.0 , 0.0 , 0.0 , 0.0 , 

6.0 , 4340.51282051 , 3900.51282051 , 4395.8974359 , 3692.82051282 , 4383.07692308 , 4645.12820513 , 4638.46153846 , 4538.46153846 , 4021.02564103 , 4098.97435897 , 4487.17948718 , 4415.8974359 , 4230.25641026 , 3972.30769231 , 1724.0 , 1678.0 , 6.127 , 0.0 , 0.0 , 0.0 , 0.0 , 

7.0 , 4342.05128205 , 3901.53846154 , 4398.46153846 , 3691.28205128 , 4383.07692308 , 4643.07692308 , 4636.41025641 , 4539.48717949 , 4020.51282051 , 4098.97435897 , 4495.8974359 , 4419.48717949 , 4240.51282051 , 3977.94871795 , 1724.0 , 1676.0 , 6.134 , 0.0 , 0.0 , 0.0 , 0.0 , 

8.0 , 4336.41025641 , 3894.87179487 , 4395.8974359 , 3681.53846154 , 4383.07692308 , 4633.33333333 , 4632.30769231 , 4535.38461538 , 4021.53846154 , 4097.43589744 , 4491.79487179 , 4414.87179487 , 4232.82051282 , 3971.28205128 , 1723.0 , 1678.0 , 6.142 , 0.0 , 0.0 , 0.0 , 0.0 , 

9.0 , 4331.28205128 , 3897.43589744 , 4393.33333333 , 3681.53846154 , 4383.07692308 , 4632.82051282 , 4641.53846154 , 4535.38461538 , 4021.53846154 , 4100.51282051 , 4481.02564103 , 4410.76923077 , 4228.20512821 , 3961.53846154 , 1723.0 , 1677.0 , 6.15 , 0.0 , 0.0 , 0.0 , 0.0 , 

10.0 , 4336.92307692 , 3909.23076923 , 4396.92307692 , 3691.28205128 , 4383.07692308 , 4644.1025641 , 4649.74358974 , 4540.51282051 , 4022.56410256 , 4104.61538462 , 4490.76923077 , 4412.30769231 , 4234.87179487 , 3967.69230769 , 1723.0 , 1678.0 , 6.158 , 0.0 , 0.0 , 0.0 , 0.0 , 

11.0 , 4343.58974359 , 3915.38461538 , 4400.51282051 , 3700.0 , 4383.07692308 , 4650.25641026 , 4645.64102564 , 4544.1025641 , 4022.56410256 , 4104.61538462 , 4510.76923077 , 4421.02564103 , 4238.46153846 , 3978.46153846 , 1724.0 , 1678.0 , 6.166 , 0.0 , 0.0 , 0.0 , 0.0 , 

12.0 , 4342.56410256 , 3913.33333333 , 4399.48717949 , 3701.02564103 , 4383.07692308 , 4647.69230769 , 4644.1025641 , 4543.07692308 , 4022.05128205 , 4102.56410256 , 4506.66666667 , 4425.12820513 , 4235.38461538 , 3977.94871795 , 1723.0 , 1677.0 , 6.173 , 0.0 , 0.0 , 0.0 , 0.0 , 

13.0 , 4339.48717949 , 3910.76923077 , 4397.94871795 , 3694.35897436 , 4383.58974359 , 4646.66666667 , 4645.12820513 , 4537.43589744 , 4022.56410256 , 4104.1025641 , 4488.20512821 , 4416.41025641 , 4230.25641026 , 3969.74358974 , 1724.0 , 1677.0 , 6.182 , 0.0 , 0.0 , 0.0 , 0.0 , 

14.0 , 4341.02564103 , 3913.33333333 , 4398.97435897 , 3693.84615385 , 4384.1025641 , 4648.71794872 , 4641.02564103 , 4536.92307692 , 4022.05128205 , 4105.12820513 , 4487.69230769 , 4412.82051282 , 4230.25641026 , 3969.23076923 , 1722.0 , 1677.0 , 6.19 , 0.0 , 0.0 , 0.0 , 0.0 , 

15.0 , 4340.51282051 , 3915.38461538 , 4399.48717949 , 3697.94871795 , 4384.1025641 , 4646.15384615 , 4633.33333333 , 4538.46153846 , 4022.05128205 , 4104.1025641 , 4493.33333333 , 4416.41025641 , 4231.79487179 , 3971.28205128 , 1723.0 , 1677.0 , 6.197 , 0.0 , 0.0 , 0.0 , 0.0 , 

16.0 , 4334.35897436 , 3914.35897436 , 4395.8974359 , 3692.30769231 , 4383.07692308 , 4641.53846154 , 4635.8974359 , 4538.97435897 , 4022.05128205 , 4104.1025641 , 4487.69230769 , 4411.28205128 , 4229.74358974 , 3968.71794872 , 1722.0 , 1676.0 , 6.205 , 0.0 , 0.0 , 0.0 , 0.0 , 

17.0 , 4336.41025641 , 3920.0 , 4397.43589744 , 3688.20512821 , 4381.53846154 , 4644.61538462 , 4647.17948718 , 4543.58974359 , 4022.05128205 , 4104.61538462 , 4487.17948718 , 4414.87179487 , 4229.74358974 , 3972.30769231 , 1724.0 , 1677.0 , 6.212 , 0.0 , 0.0 , 0.0 , 0.0 , 

18.0 , 4344.1025641 , 3929.23076923 , 4405.12820513 , 3691.79487179 , 4383.07692308 , 4650.25641026 , 4652.82051282 , 4546.15384615 , 4022.05128205 , 4104.1025641 , 4494.35897436 , 4430.25641026 , 4233.84615385 , 3982.56410256 , 1723.0 , 1675.0 , 6.22 , 0.0 , 0.0 , 0.0 , 0.0 , 

19.0 , 4343.58974359 , 3926.15384615 , 4404.61538462 , 3689.23076923 , 4384.61538462 , 4650.76923077 , 4650.76923077 , 4542.56410256 , 4022.05128205 , 4104.61538462 , 4494.35897436 , 4427.17948718 , 4234.87179487 , 3982.05128205 , 1722.0 , 1677.0 , 6.228 , 0.0 , 0.0 , 0.0 , 0.0 , 

20.0 , 4339.48717949 , 3920.0 , 4395.38461538 , 3685.64102564 , 4382.56410256 , 4647.69230769 , 4648.20512821 , 4538.97435897 , 4022.05128205 , 4104.1025641 , 4489.23076923 , 4413.33333333 , 4232.82051282 , 3973.33333333 , 1723.0 , 1675.0 , 6.236 , 0.0 , 0.0 , 0.0 , 0.0 , 

21.0 , 4343.07692308 , 3929.74358974 , 4397.43589744 , 3693.84615385 , 4381.02564103 , 4641.02564103 , 4645.64102564 , 4538.46153846 , 4022.05128205 , 4104.61538462 , 4490.76923077 , 4416.41025641 , 4233.33333333 , 3975.38461538 , 1722.0 , 1675.0 , 6.244 , 0.0 , 0.0 , 0.0 , 0.0 , 

22.0 , 4347.17948718 , 3943.58974359 , 4405.64102564 , 3699.48717949 , 4382.56410256 , 4636.41025641 , 4645.12820513 , 4536.92307692 , 4022.05128205 , 4104.61538462 , 4500.51282051 , 4422.56410256 , 4234.87179487 , 3982.56410256 , 1723.0 , 1674.0 , 6.251 , 0.0 , 0.0 , 0.0 , 0.0 , 

23.0 , 4344.1025641 , 3937.43589744 , 4403.07692308 , 3693.84615385 , 4384.1025641 , 4643.58974359 , 4646.66666667 , 4535.8974359 , 4022.05128205 , 4104.1025641 , 4505.12820513 , 4417.94871795 , 4234.87179487 , 3982.05128205 , 1722.0 , 1673.0 , 6.259 , 0.0 , 0.0 , 0.0 , 0.0 , 

24.0 , 4340.51282051 , 3926.15384615 , 4396.41025641 , 3690.76923077 , 4383.07692308 , 4650.25641026 , 4646.15384615 , 4538.46153846 , 4022.05128205 , 4105.12820513 , 4493.84615385 , 4411.79487179 , 4232.82051282 , 3975.38461538 , 1724.0 , 1673.0 , 6.267 , 0.0 , 0.0 , 0.0 , 0.0 , 

25.0 , 4341.53846154 , 3933.84615385 , 4398.46153846 , 3693.33333333 , 4382.56410256 , 4651.79487179 , 4649.23076923 , 4544.1025641 , 4022.05128205 , 4104.1025641 , 4487.69230769 , 4411.79487179 , 4232.82051282 , 3972.30769231 , 1723.0 , 1673.0 , 6.275 , 0.0 , 0.0 , 0.0 , 0.0 , 

26.0 , 4342.05128205 , 3938.97435897 , 4401.53846154 , 3691.79487179 , 4383.07692308 , 4648.71794872 , 4651.79487179 , 4545.12820513 , 4022.05128205 , 4100.51282051 , 4494.35897436 , 4415.8974359 , 4232.82051282 , 3972.82051282 , 1724.0 , 1675.0 , 6.283 , 0.0 , 0.0 , 0.0 , 0.0 , 

27.0 , 4333.33333333 , 3928.20512821 , 4393.33333333 , 3681.53846154 , 4383.07692308 , 4637.94871795 , 4646.66666667 , 4537.94871795 , 4022.05128205 , 4097.43589744 , 4484.61538462 , 4410.76923077 , 4220.51282051 , 3964.1025641 , 1724.0 , 1676.0 , 6.291 , 0.0 , 0.0 , 0.0 , 0.0 , 

28.0 , 4323.58974359 , 3921.02564103 , 4382.56410256 , 3675.8974359 , 4383.07692308 , 4634.35897436 , 4640.51282051 , 4533.84615385 , 4022.05128205 , 4098.97435897 , 4468.20512821 , 4397.43589744 , 4213.33333333 , 3951.79487179 , 1724.0 , 1677.0 , 6.298 , 0.0 , 0.0 , 0.0 , 0.0 , 

29.0 , 4325.64102564 , 3926.15384615 , 4383.58974359 , 3680.0 , 4383.07692308 , 4644.1025641 , 4642.56410256 , 4534.87179487 , 4022.05128205 , 4103.07692308 , 4476.92307692 , 4394.87179487 , 4224.61538462 , 3954.35897436 , 1723.0 , 1678.0 , 6.306 , 0.0 , 0.0 , 0.0 , 0.0 , 

30.0 , 4333.84615385 , 3935.38461538 , 4392.82051282 , 3683.07692308 , 4383.07692308 , 4648.71794872 , 4652.30769231 , 4542.05128205 , 4022.05128205 , 4103.58974359 , 4493.84615385 , 4406.66666667 , 4236.92307692 , 3963.58974359 , 1724.0 , 1679.0 , 6.314 , 0.0 , 0.0 , 0.0 , 0.0 , 

31.0 , 4336.41025641 , 3942.56410256 , 4396.41025641 , 3685.64102564 , 4383.07692308 , 4647.17948718 , 4657.43589744 , 4550.76923077 , 4022.05128205 , 4102.05128205 , 4498.97435897 , 4413.84615385 , 4238.46153846 , 3968.20512821 , 1724.0 , 1680.0 , 6.322 , 0.0 , 0.0 , 0.0 , 0.0 , 

32.0 , 4335.38461538 , 3944.61538462 , 4395.8974359 , 3689.74358974 , 4383.07692308 , 4646.66666667 , 4650.25641026 , 4555.38461538 , 4022.05128205 , 4103.07692308 , 4497.94871795 , 4412.82051282 , 4237.43589744 , 3970.76923077 , 1724.0 , 1679.0 , 6.33 , 0.0 , 0.0 , 0.0 , 0.0 , 

33.0 , 4336.92307692 , 3942.56410256 , 4396.92307692 , 3686.66666667 , 4382.56410256 , 4647.17948718 , 4649.74358974 , 4551.79487179 , 4022.05128205 , 4104.1025641 , 4493.84615385 , 4412.82051282 , 4236.92307692 , 3971.79487179 , 1724.0 , 1680.0 , 6.338 , 0.0 , 0.0 , 0.0 , 0.0 , 

34.0 , 4337.43589744 , 3943.58974359 , 4395.38461538 , 3682.05128205 , 4383.58974359 , 4653.33333333 , 4654.35897436 , 4543.07692308 , 4022.05128205 , 4103.58974359 , 4489.74358974 , 4411.79487179 , 4230.76923077 , 3969.23076923 , 1726.0 , 1679.0 , 6.345 , 0.0 , 0.0 , 0.0 , 0.0 , 

35.0 , 4337.94871795 , 3953.84615385 , 4394.87179487 , 3687.17948718 , 4384.1025641 , 4658.46153846 , 4650.76923077 , 4538.46153846 , 4022.05128205 , 4104.1025641 , 4495.8974359 , 4411.79487179 , 4232.82051282 , 3970.76923077 , 1725.0 , 1679.0 , 6.353 , 0.0 , 0.0 , 0.0 , 0.0 , 

36.0 , 4341.53846154 , 3964.61538462 , 4396.92307692 , 3692.82051282 , 4383.07692308 , 4651.79487179 , 4646.66666667 , 4542.56410256 , 4022.05128205 , 4104.61538462 , 4506.15384615 , 4414.35897436 , 4244.61538462 , 3975.38461538 , 1725.0 , 1680.0 , 6.361 , 0.0 , 0.0 , 0.0 , 0.0 , 

37.0 , 4341.02564103 , 3964.61538462 , 4398.46153846 , 3690.76923077 , 4382.56410256 , 4647.17948718 , 4648.71794872 , 4539.48717949 , 4022.05128205 , 4104.1025641 , 4500.0 , 4415.8974359 , 4241.53846154 , 3974.87179487 , 1725.0 , 1678.0 , 6.37 , 0.0 , 0.0 , 0.0 , 0.0 , 

38.0 , 4334.87179487 , 3957.43589744 , 4397.94871795 , 3691.28205128 , 4383.07692308 , 4647.17948718 , 4649.74358974 , 4536.41025641 , 4023.07692308 , 4104.1025641 , 4489.23076923 , 4415.38461538 , 4230.25641026 , 3972.30769231 , 1725.0 , 1679.0 , 6.377 , 0.0 , 0.0 , 0.0 , 0.0 , 

39.0 , 4332.82051282 , 3960.0 , 4397.43589744 , 3692.82051282 , 4384.1025641 , 4650.76923077 , 4653.33333333 , 4546.15384615 , 4022.05128205 , 4104.61538462 , 4493.33333333 , 4418.46153846 , 4232.30769231 , 3974.35897436 , 1725.0 , 1678.0 , 6.384 , 0.0 , 0.0 , 0.0 , 0.0 , 

40.0 , 4337.43589744 , 3972.82051282 , 4397.43589744 , 3690.76923077 , 4383.58974359 , 4656.92307692 , 4658.46153846 , 4547.69230769 , 4021.53846154 , 4104.1025641 , 4499.48717949 , 4420.51282051 , 4237.43589744 , 3972.30769231 , 1725.0 , 1678.0 , 6.394 , 0.0 , 0.0 , 0.0 , 0.0 , 

41.0 , 4346.15384615 , 3985.12820513 , 4396.41025641 , 3693.33333333 , 4383.58974359 , 4657.94871795 , 4655.8974359 , 4541.53846154 , 4026.15384615 , 4104.61538462 , 4491.28205128 , 4417.43589744 , 4231.79487179 , 3968.20512821 , 1725.0 , 1678.0 , 6.401 , 0.0 , 0.0 , 0.0 , 0.0 , 

42.0 , 4352.30769231 , 3992.30769231 , 4397.43589744 , 3700.0 , 4384.61538462 , 4654.87179487 , 4654.35897436 , 4548.71794872 , 4027.17948718 , 4104.1025641 , 4488.71794872 , 4418.97435897 , 4231.28205128 , 3973.33333333 , 1725.0 , 1678.0 , 6.408 , 0.0 , 0.0 , 0.0 , 0.0 , 

43.0 , 4350.25641026 , 3988.71794872 , 4397.94871795 , 3695.8974359 , 4384.61538462 , 4657.43589744 , 4657.94871795 , 4552.82051282 , 4021.53846154 , 4104.61538462 , 4495.8974359 , 4421.02564103 , 4236.92307692 , 3974.87179487 , 1724.0 , 1678.0 , 6.416 , 0.0 , 0.0 , 0.0 , 0.0 , 

44.0 , 4339.48717949 , 3979.48717949 , 4393.84615385 , 3685.12820513 , 4384.61538462 , 4656.92307692 , 4655.8974359 , 4543.07692308 , 4020.0 , 4104.61538462 , 4492.30769231 , 4416.41025641 , 4233.33333333 , 3964.61538462 , 1724.0 , 1678.0 , 6.423 , 0.0 , 0.0 , 0.0 , 0.0 , 

45.0 , 4330.76923077 , 3973.33333333 , 4388.71794872 , 3681.53846154 , 4384.61538462 , 4648.20512821 , 4648.71794872 , 4537.94871795 , 4021.53846154 , 4104.61538462 , 4478.46153846 , 4409.74358974 , 4221.53846154 , 3953.33333333 , 1725.0 , 1678.0 , 6.431 , 0.0 , 0.0 , 0.0 , 0.0 , 

46.0 , 4329.23076923 , 3973.33333333 , 4388.20512821 , 3683.58974359 , 4384.61538462 , 4645.64102564 , 4646.66666667 , 4540.51282051 , 4020.51282051 , 4104.61538462 , 4471.79487179 , 4408.71794872 , 4216.92307692 , 3946.15384615 , 1724.0 , 1677.0 , 6.44 , 0.0 , 0.0 , 0.0 , 0.0 , 

47.0 , 4329.23076923 , 3974.87179487 , 4391.28205128 , 3682.56410256 , 4384.61538462 , 4648.71794872 , 4648.20512821 , 4539.48717949 , 4020.51282051 , 4104.61538462 , 4474.87179487 , 4411.79487179 , 4216.92307692 , 3943.58974359 , 1724.0 , 1678.0 , 6.448 , 0.0 , 0.0 , 0.0 , 0.0 , 

48.0 , 4325.64102564 , 3972.82051282 , 4389.23076923 , 3681.02564103 , 4384.61538462 , 4650.76923077 , 4648.20512821 , 4538.46153846 , 4022.05128205 , 4104.61538462 , 4473.84615385 , 4407.17948718 , 4205.64102564 , 3942.56410256 , 1724.0 , 1677.0 , 6.455 , 0.0 , 0.0 , 0.0 , 0.0 , 

49.0 , 4324.1025641 , 3972.30769231 , 4383.58974359 , 3681.53846154 , 4384.61538462 , 4650.76923077 , 4647.17948718 , 4538.46153846 , 4020.51282051 , 4104.1025641 , 4472.30769231 , 4400.51282051 , 4197.43589744 , 3940.51282051 , 1724.0 , 1678.0 , 6.463 , 0.0 , 0.0 , 0.0 , 0.0 , 

50.0 , 4325.12820513 , 3971.79487179 , 4383.07692308 , 3682.56410256 , 4384.61538462 , 4647.69230769 , 4646.66666667 , 4537.94871795 , 4020.51282051 , 4104.61538462 , 4477.43589744 , 4401.02564103 , 4205.12820513 , 3939.48717949 , 1724.0 , 1677.0 , 6.47 , 0.0 , 0.0 , 0.0 , 0.0 , 

51.0 , 4325.12820513 , 3971.79487179 , 4386.15384615 , 3683.07692308 , 4384.61538462 , 4646.15384615 , 4646.15384615 , 4536.41025641 , 4020.51282051 , 4104.1025641 , 4478.46153846 , 4404.61538462 , 4206.15384615 , 3941.02564103 , 1722.0 , 1677.0 , 6.478 , 0.0 , 0.0 , 0.0 , 0.0 , 

52.0 , 4324.1025641 , 3972.30769231 , 4385.12820513 , 3682.56410256 , 4384.61538462 , 4653.84615385 , 4646.66666667 , 4535.38461538 , 4021.02564103 , 4104.61538462 , 4471.28205128 , 4400.51282051 , 4200.51282051 , 3940.0 , 1723.0 , 1676.0 , 6.486 , 0.0 , 0.0 , 0.0 , 0.0 , 

53.0 , 4323.58974359 , 3972.82051282 , 4382.56410256 , 3682.56410256 , 4384.1025641 , 4660.0 , 4647.17948718 , 4535.38461538 , 4021.53846154 , 4104.1025641 , 4470.76923077 , 4396.41025641 , 4209.23076923 , 3936.41025641 , 1724.0 , 1677.0 , 6.494 , 0.0 , 0.0 , 0.0 , 0.0 , 

54.0 , 4326.66666667 , 3975.8974359 , 4385.64102564 , 3685.12820513 , 4383.07692308 , 4651.28205128 , 4646.66666667 , 4540.0 , 4021.53846154 , 4104.61538462 , 4476.92307692 , 4398.46153846 , 4213.84615385 , 3938.97435897 , 1724.0 , 1677.0 , 6.502 , 0.0 , 0.0 , 0.0 , 0.0 , 

55.0 , 4326.15384615 , 3974.87179487 , 4385.12820513 , 3685.12820513 , 4382.56410256 , 4644.61538462 , 4648.71794872 , 4539.48717949 , 4021.53846154 , 4104.1025641 , 4471.79487179 , 4398.97435897 , 4203.58974359 , 3938.97435897 , 1724.0 , 1677.0 , 6.509 , 0.0 , 0.0 , 0.0 , 0.0 , 

56.0 , 4320.0 , 3972.30769231 , 4381.02564103 , 3682.05128205 , 4383.07692308 , 4656.92307692 , 4650.25641026 , 4526.66666667 , 4021.53846154 , 4104.61538462 , 4458.97435897 , 4397.43589744 , 4196.92307692 , 3931.28205128 , 1724.0 , 1678.0 , 6.517 , 0.0 , 0.0 , 0.0 , 0.0 , 

57.0 , 4320.51282051 , 3976.41025641 , 4385.64102564 , 3686.66666667 , 4383.58974359 , 4661.53846154 , 4649.74358974 , 4523.07692308 , 4021.02564103 , 4104.1025641 , 4462.05128205 , 4394.87179487 , 4199.48717949 , 3930.25641026 , 1723.0 , 1677.0 , 6.525 , 0.0 , 0.0 , 0.0 , 0.0 , 

58.0 , 4326.66666667 , 3985.64102564 , 4392.82051282 , 3693.84615385 , 4384.61538462 , 4649.74358974 , 4650.25641026 , 4536.92307692 , 4020.51282051 , 4104.61538462 , 4474.87179487 , 4399.48717949 , 4205.64102564 , 3940.51282051 , 1724.0 , 1677.0 , 6.534 , 0.0 , 0.0 , 0.0 , 0.0 , 

59.0 , 4329.23076923 , 3990.25641026 , 4395.38461538 , 3692.30769231 , 4384.61538462 , 4646.66666667 , 4650.25641026 , 4543.58974359 , 4021.53846154 , 4104.61538462 , 4475.8974359 , 4409.23076923 , 4213.33333333 , 3944.61538462 , 1724.0 , 1675.0 , 6.543 , 0.0 , 0.0 , 0.0 , 0.0 , 

60.0 , 4331.79487179 , 3988.71794872 , 4392.30769231 , 3689.74358974 , 4384.1025641 , 4651.79487179 , 4648.20512821 , 4535.38461538 , 4021.53846154 , 4104.61538462 , 4472.30769231 , 4411.79487179 , 4216.92307692 , 3941.53846154 , 1724.0 , 1677.0 , 6.549 , 0.0 , 0.0 , 0.0 , 0.0 , 

61.0 , 4334.87179487 , 3988.71794872 , 4390.76923077 , 3691.79487179 , 4383.58974359 , 4648.20512821 , 4646.15384615 , 4532.30769231 , 4021.53846154 , 4104.61538462 , 4472.30769231 , 4408.20512821 , 4213.84615385 , 3945.64102564 , 1725.0 , 1676.0 , 6.557 , 0.0 , 0.0 , 0.0 , 0.0 , 

62.0 , 4333.33333333 , 3988.71794872 , 4390.25641026 , 3690.25641026 , 4382.56410256 , 4648.71794872 , 4647.69230769 , 4536.41025641 , 4022.05128205 , 4104.61538462 , 4469.74358974 , 4407.69230769 , 4211.79487179 , 3949.74358974 , 1724.0 , 1676.0 , 6.564 , 0.0 , 0.0 , 0.0 , 0.0 , 

63.0 , 4333.33333333 , 3989.74358974 , 4390.76923077 , 3689.23076923 , 4382.56410256 , 4654.35897436 , 4648.71794872 , 4538.46153846 , 4020.51282051 , 4104.61538462 , 4472.82051282 , 4411.28205128 , 4215.38461538 , 3949.74358974 , 1725.0 , 1677.0 , 6.572 , 0.0 , 0.0 , 0.0 , 0.0 , 

64.0 , 4335.38461538 , 3989.23076923 , 4394.35897436 , 3693.84615385 , 4384.1025641 , 4650.76923077 , 4646.66666667 , 4537.94871795 , 4025.12820513 , 4104.1025641 , 4478.97435897 , 4415.38461538 , 4217.94871795 , 3954.87179487 , 1725.0 , 1676.0 , 6.581 , 0.0 , 0.0 , 0.0 , 0.0 , 

65.0 , 4334.35897436 , 3987.69230769 , 4395.8974359 , 3695.38461538 , 4383.58974359 , 4647.17948718 , 4646.66666667 , 4539.48717949 , 4030.76923077 , 4104.61538462 , 4472.82051282 , 4414.35897436 , 4215.38461538 , 3958.97435897 , 1725.0 , 1676.0 , 6.588 , 0.0 , 0.0 , 0.0 , 0.0 , 

66.0 , 4340.51282051 , 3992.30769231 , 4398.46153846 , 3697.43589744 , 4382.56410256 , 4651.28205128 , 4649.74358974 , 4550.76923077 , 4025.64102564 , 4104.1025641 , 4473.84615385 , 4416.41025641 , 4220.0 , 3957.94871795 , 1724.0 , 1676.0 , 6.597 , 0.0 , 0.0 , 0.0 , 0.0 , 

67.0 , 4344.1025641 , 3996.92307692 , 4399.48717949 , 3700.51282051 , 4381.53846154 , 4650.76923077 , 4651.79487179 , 4556.92307692 , 4019.48717949 , 4104.61538462 , 4488.71794872 , 4426.15384615 , 4232.30769231 , 3958.97435897 , 1723.0 , 1677.0 , 6.604 , 0.0 , 0.0 , 0.0 , 0.0 , 

68.0 , 4333.84615385 , 3988.71794872 , 4393.84615385 , 3693.33333333 , 4381.53846154 , 4645.12820513 , 4646.66666667 , 4545.12820513 , 4021.02564103 , 4104.1025641 , 4495.8974359 , 4426.15384615 , 4230.76923077 , 3958.97435897 , 1723.0 , 1677.0 , 6.611 , 0.0 , 0.0 , 0.0 , 0.0 , 

69.0 , 4325.64102564 , 3976.41025641 , 4388.71794872 , 3683.58974359 , 4381.53846154 , 4645.12820513 , 4637.94871795 , 4532.82051282 , 4023.07692308 , 4104.61538462 , 4489.23076923 , 4414.87179487 , 4220.51282051 , 3957.43589744 , 1722.0 , 1677.0 , 6.62 , 0.0 , 0.0 , 0.0 , 0.0 , 

70.0 , 4328.20512821 , 3975.8974359 , 4390.25641026 , 3684.1025641 , 4381.53846154 , 4647.17948718 , 4634.35897436 , 4535.38461538 , 4021.02564103 , 4104.61538462 , 4480.0 , 4412.30769231 , 4218.46153846 , 3957.43589744 , 1722.0 , 1676.0 , 6.627 , 0.0 , 0.0 , 0.0 , 0.0 , 

71.0 , 4329.74358974 , 3980.0 , 4390.76923077 , 3686.15384615 , 4382.56410256 , 4646.15384615 , 4633.33333333 , 4537.43589744 , 4020.51282051 , 4104.1025641 , 4475.38461538 , 4414.87179487 , 4215.8974359 , 3951.28205128 , 1722.0 , 1677.0 , 6.636 , 0.0 , 0.0 , 0.0 , 0.0 , 

72.0 , 4326.66666667 , 3981.53846154 , 4388.71794872 , 3683.07692308 , 4383.07692308 , 4645.64102564 , 4637.43589744 , 4535.38461538 , 4022.05128205 , 4104.1025641 , 4476.92307692 , 4413.84615385 , 4215.38461538 , 3943.07692308 , 1723.0 , 1676.0 , 6.642 , 0.0 , 0.0 , 0.0 , 0.0 , 

73.0 , 4326.15384615 , 3981.02564103 , 4389.74358974 , 3683.07692308 , 4383.07692308 , 4644.61538462 , 4643.07692308 , 4537.94871795 , 4022.56410256 , 4105.12820513 , 4478.46153846 , 4411.79487179 , 4221.53846154 , 3943.58974359 , 1722.0 , 1677.0 , 6.65 , 0.0 , 0.0 , 0.0 , 0.0 , 

74.0 , 4324.1025641 , 3974.87179487 , 4383.58974359 , 3683.58974359 , 4382.56410256 , 4640.51282051 , 4637.94871795 , 4531.28205128 , 4022.56410256 , 4102.56410256 , 4468.20512821 , 4405.64102564 , 4211.79487179 , 3942.56410256 , 1723.0 , 1679.0 , 6.658 , 0.0 , 0.0 , 0.0 , 0.0 , 

75.0 , 4324.61538462 , 3974.87179487 , 4380.51282051 , 3683.07692308 , 4383.07692308 , 4639.48717949 , 4633.33333333 , 4522.05128205 , 4022.05128205 , 4097.94871795 , 4462.56410256 , 4401.53846154 , 4202.05128205 , 3937.94871795 , 1723.0 , 1677.0 , 6.666 , 0.0 , 0.0 , 0.0 , 0.0 , 

76.0 , 4328.20512821 , 3984.1025641 , 4391.79487179 , 3687.17948718 , 4383.07692308 , 4643.07692308 , 4640.51282051 , 4523.58974359 , 4022.56410256 , 4098.46153846 , 4475.38461538 , 4408.71794872 , 4212.82051282 , 3939.48717949 , 1723.0 , 1678.0 , 6.674 , 0.0 , 0.0 , 0.0 , 0.0 , 

77.0 , 4327.69230769 , 3989.23076923 , 4396.41025641 , 3689.23076923 , 4382.56410256 , 4641.53846154 , 4642.56410256 , 4523.07692308 , 4022.56410256 , 4099.48717949 , 4478.46153846 , 4413.84615385 , 4217.43589744 , 3943.07692308 , 1724.0 , 1677.0 , 6.682 , 0.0 , 0.0 , 0.0 , 0.0 , 

78.0 , 4325.12820513 , 3984.1025641 , 4386.15384615 , 3685.12820513 , 4382.56410256 , 4638.97435897 , 4637.94871795 , 4526.15384615 , 4022.56410256 , 4097.43589744 , 4462.56410256 , 4412.30769231 , 4207.17948718 , 3941.02564103 , 1723.0 , 1678.0 , 6.689 , 0.0 , 0.0 , 0.0 , 0.0 , 

79.0 , 4325.64102564 , 3981.02564103 , 4382.05128205 , 3681.53846154 , 4383.07692308 , 4639.48717949 , 4640.51282051 , 4534.87179487 , 4022.56410256 , 4100.51282051 , 4462.56410256 , 4413.33333333 , 4213.33333333 , 3943.58974359 , 1724.0 , 1677.0 , 6.697 , 0.0 , 0.0 , 0.0 , 0.0 , 

80.0 , 4326.66666667 , 3983.58974359 , 4389.23076923 , 3684.61538462 , 4382.56410256 , 4635.38461538 , 4643.07692308 , 4534.35897436 , 4022.56410256 , 4105.12820513 , 4476.92307692 , 4413.84615385 , 4222.56410256 , 3946.15384615 , 1724.0 , 1677.0 , 6.705 , 0.0 , 0.0 , 0.0 , 0.0 , 

81.0 , 4325.64102564 , 3984.61538462 , 4391.79487179 , 3686.66666667 , 4381.53846154 , 4631.28205128 , 4641.53846154 , 4525.64102564 , 4022.56410256 , 4104.1025641 , 4475.8974359 , 4412.82051282 , 4211.79487179 , 3940.0 , 1724.0 , 1677.0 , 6.713 , 0.0 , 0.0 , 0.0 , 0.0 , 

82.0 , 4326.15384615 , 3983.58974359 , 4388.71794872 , 3685.12820513 , 4382.05128205 , 4632.82051282 , 4641.53846154 , 4525.12820513 , 4022.56410256 , 4102.56410256 , 4472.30769231 , 4415.8974359 , 4212.82051282 , 3942.05128205 , 1724.0 , 1677.0 , 6.721 , 0.0 , 0.0 , 0.0 , 0.0 , 

83.0 , 4327.17948718 , 3979.48717949 , 4387.69230769 , 3684.1025641 , 4385.12820513 , 4632.30769231 , 4638.46153846 , 4525.64102564 , 4022.56410256 , 4103.58974359 , 4479.48717949 , 4416.92307692 , 4227.17948718 , 3957.43589744 , 1724.0 , 1676.0 , 6.728 , 0.0 , 0.0 , 0.0 , 0.0 , 

84.0 , 4327.69230769 , 3976.92307692 , 4386.15384615 , 3685.12820513 , 4388.71794872 , 4632.82051282 , 4637.94871795 , 4522.56410256 , 4022.56410256 , 4103.58974359 , 4480.0 , 4412.82051282 , 4223.58974359 , 3960.0 , 1723.0 , 1677.0 , 6.736 , 0.0 , 0.0 , 0.0 , 0.0 , 

85.0 , 4325.12820513 , 3976.41025641 , 4381.53846154 , 3683.07692308 , 4388.71794872 , 4640.51282051 , 4641.02564103 , 4522.05128205 , 4022.56410256 , 4103.58974359 , 4469.74358974 , 4407.69230769 , 4213.84615385 , 3943.58974359 , 1724.0 , 1676.0 , 6.744 , 0.0 , 0.0 , 0.0 , 0.0 , 

86.0 , 4318.97435897 , 3975.38461538 , 4377.94871795 , 3681.53846154 , 4386.66666667 , 4643.07692308 , 4640.51282051 , 4523.58974359 , 4022.56410256 , 4104.61538462 , 4468.20512821 , 4403.07692308 , 4212.30769231 , 3936.41025641 , 1724.0 , 1677.0 , 6.752 , 0.0 , 0.0 , 0.0 , 0.0 , 

87.0 , 4320.0 , 3974.35897436 , 4380.0 , 3683.58974359 , 4388.20512821 , 4641.02564103 , 4638.46153846 , 4522.05128205 , 4022.56410256 , 4104.61538462 , 4471.79487179 , 4404.61538462 , 4213.84615385 , 3947.17948718 , 1724.0 , 1676.0 , 6.761 , 0.0 , 0.0 , 0.0 , 0.0 , 

88.0 , 4326.66666667 , 3975.8974359 , 4382.56410256 , 3683.58974359 , 4388.71794872 , 4641.02564103 , 4636.41025641 , 4524.1025641 , 4022.56410256 , 4104.1025641 , 4474.35897436 , 4409.74358974 , 4224.1025641 , 3957.43589744 , 1723.0 , 1677.0 , 6.768 , 0.0 , 0.0 , 0.0 , 0.0 , 

89.0 , 4328.71794872 , 3981.53846154 , 4383.07692308 , 3684.1025641 , 4383.07692308 , 4640.51282051 , 4636.92307692 , 4531.79487179 , 4022.56410256 , 4104.61538462 , 4482.05128205 , 4411.79487179 , 4236.41025641 , 3959.48717949 , 1724.0 , 1676.0 , 6.776 , 0.0 , 0.0 , 0.0 , 0.0 , 

90.0 , 4326.66666667 , 3984.61538462 , 4382.05128205 , 3688.20512821 , 4381.02564103 , 4636.41025641 , 4640.51282051 , 4533.33333333 , 4022.56410256 , 4104.61538462 , 4486.15384615 , 4412.82051282 , 4234.35897436 , 3955.8974359 , 1724.0 , 1677.0 , 6.783 , 0.0 , 0.0 , 0.0 , 0.0 , 

91.0 , 4328.20512821 , 3980.0 , 4381.53846154 , 3687.69230769 , 4383.58974359 , 4634.87179487 , 4640.0 , 4525.12820513 , 4022.56410256 , 4104.61538462 , 4478.97435897 , 4414.35897436 , 4228.71794872 , 3951.28205128 , 1725.0 , 1677.0 , 6.791 , 0.0 , 0.0 , 0.0 , 0.0 , 

92.0 , 4328.20512821 , 3975.8974359 , 4383.07692308 , 3682.56410256 , 4383.07692308 , 4637.94871795 , 4637.94871795 , 4521.02564103 , 4022.56410256 , 4104.1025641 , 4475.8974359 , 4410.25641026 , 4224.1025641 , 3949.23076923 , 1723.0 , 1677.0 , 6.799 , 0.0 , 0.0 , 0.0 , 0.0 , 

93.0 , 4326.66666667 , 3977.43589744 , 4384.1025641 , 3684.1025641 , 4382.56410256 , 4640.51282051 , 4641.02564103 , 4524.1025641 , 4022.56410256 , 4104.61538462 , 4480.0 , 4409.74358974 , 4218.46153846 , 3952.30769231 , 1725.0 , 1678.0 , 6.808 , 0.0 , 0.0 , 0.0 , 0.0 , 

