['COUNTER', 'AF3', 'F7', 'F3', 'FC5', 'T7', 'P7', 'O1', 'O2', 'P8', 'T8', 'FC6', 'F4', 'F8', 'AF4', 'GYROX', 'GYROY', 'TIMESTAMP', 'FUNC_ID', 'FUNC_VALUE', 'MARKER', 'SYNC_SIGNAL']
3.0 , 4189.23076923 , 4206.66666667 , 4197.94871795 , 4185.12820513 , 4194.35897436 , 4202.56410256 , 4205.12820513 , 4205.64102564 , 4196.92307692 , 4183.07692308 , 4193.33333333 , 4230.76923077 , 4191.28205128 , 4212.30769231 , 1757.0 , 1669.0 , 3.962 , 0.0 , 0.0 , 0.0 , 0.0 , 

4.0 , 4193.33333333 , 4200.51282051 , 4210.76923077 , 4206.15384615 , 4201.02564103 , 4207.17948718 , 4204.61538462 , 4203.07692308 , 4200.0 , 4200.51282051 , 4201.53846154 , 4204.1025641 , 4199.48717949 , 4199.48717949 , 1758.0 , 1675.0 , 3.97 , 0.0 , 0.0 , 0.0 , 0.0 , 

5.0 , 4206.15384615 , 4231.28205128 , 4166.15384615 , 4197.94871795 , 4213.33333333 , 4221.53846154 , 4188.20512821 , 4188.71794872 , 4202.05128205 , 4195.38461538 , 4193.84615385 , 4165.64102564 , 4203.58974359 , 4201.53846154 , 1760.0 , 1676.0 , 3.978 , 0.0 , 0.0 , 0.0 , 0.0 , 

6.0 , 4165.64102564 , 4166.15384615 , 4232.82051282 , 4176.92307692 , 4174.35897436 , 4171.28205128 , 4222.56410256 , 4225.12820513 , 4192.82051282 , 4173.84615385 , 4193.84615385 , 4303.07692308 , 4177.43589744 , 4225.12820513 , 1768.0 , 1675.0 , 3.986 , 0.0 , 0.0 , 0.0 , 0.0 , 

7.0 , 4221.02564103 , 4104.1025641 , 4313.33333333 , 4308.71794872 , 4212.30769231 , 4170.76923077 , 4212.30769231 , 4201.02564103 , 4215.38461538 , 4302.56410256 , 4253.84615385 , 4116.92307692 , 4240.0 , 4133.84615385 , 1778.0 , 1668.0 , 3.993 , 0.0 , 0.0 , 0.0 , 0.0 , 

8.0 , 4348.71794872 , 3982.56410256 , 4346.15384615 , 4497.94871795 , 4277.43589744 , 4097.43589744 , 4158.46153846 , 4140.51282051 , 4266.15384615 , 4519.48717949 , 4349.23076923 , 3778.97435897 , 4358.97435897 , 4001.02564103 , 1777.0 , 1661.0 , 4.0 , 0.0 , 0.0 , 0.0 , 0.0 , 

9.0 , 4443.58974359 , 3897.94871795 , 4348.71794872 , 4483.07692308 , 4256.92307692 , 3982.05128205 , 4151.79487179 , 4148.71794872 , 4281.53846154 , 4580.51282051 , 4381.53846154 , 3781.02564103 , 4384.61538462 , 3986.15384615 , 1773.0 , 1662.0 , 4.008 , 0.0 , 0.0 , 0.0 , 0.0 , 

10.0 , 4477.94871795 , 3915.38461538 , 4354.35897436 , 4378.46153846 , 4205.64102564 , 3948.20512821 , 4172.82051282 , 4181.02564103 , 4264.61538462 , 4528.20512821 , 4362.56410256 , 3926.15384615 , 4354.87179487 , 4023.58974359 , 1788.0 , 1658.0 , 4.015 , 0.0 , 0.0 , 0.0 , 0.0 , 

11.0 , 4516.92307692 , 3987.69230769 , 4335.38461538 , 4386.66666667 , 4217.43589744 , 3997.94871795 , 4152.30769231 , 4150.25641026 , 4262.05128205 , 4530.25641026 , 4357.94871795 , 3840.51282051 , 4373.33333333 , 4004.61538462 , 1788.0 , 1644.0 , 4.024 , 0.0 , 0.0 , 0.0 , 0.0 , 

12.0 , 4530.25641026 , 3981.53846154 , 4316.41025641 , 4403.58974359 , 4220.0 , 3990.25641026 , 4141.02564103 , 4121.53846154 , 4266.15384615 , 4544.1025641 , 4363.58974359 , 3796.41025641 , 4384.61538462 , 3991.79487179 , 1776.0 , 1632.0 , 4.031 , 0.0 , 0.0 , 0.0 , 0.0 , 

13.0 , 4504.61538462 , 3935.8974359 , 4349.74358974 , 4377.94871795 , 4214.35897436 , 3974.87179487 , 4180.51282051 , 4150.76923077 , 4262.56410256 , 4527.17948718 , 4363.07692308 , 3897.43589744 , 4362.56410256 , 4008.71794872 , 1775.0 , 1632.0 , 4.039 , 0.0 , 0.0 , 0.0 , 0.0 , 

14.0 , 4509.23076923 , 3982.05128205 , 4315.8974359 , 4386.66666667 , 4216.92307692 , 4010.25641026 , 4161.53846154 , 4153.84615385 , 4264.1025641 , 4525.64102564 , 4355.8974359 , 3855.8974359 , 4368.71794872 , 4007.69230769 , 1793.0 , 1651.0 , 4.047 , 0.0 , 0.0 , 0.0 , 0.0 , 

15.0 , 4520.51282051 , 3998.97435897 , 4311.28205128 , 4378.46153846 , 4151.79487179 , 4001.53846154 , 4124.61538462 , 4133.84615385 , 4253.33333333 , 4523.58974359 , 4352.82051282 , 3858.46153846 , 4367.17948718 , 4010.76923077 , 1803.0 , 1652.0 , 4.055 , 0.0 , 0.0 , 0.0 , 0.0 , 

16.0 , 4533.33333333 , 3987.69230769 , 4349.23076923 , 4343.07692308 , 4177.43589744 , 4022.56410256 , 4143.58974359 , 4099.48717949 , 4237.94871795 , 4519.48717949 , 4349.23076923 , 3851.79487179 , 4363.58974359 , 4012.82051282 , 1786.0 , 1644.0 , 4.063 , 0.0 , 0.0 , 0.0 , 0.0 , 

17.0 , 4497.94871795 , 3938.97435897 , 4412.30769231 , 4355.8974359 , 4285.12820513 , 4016.92307692 , 4204.1025641 , 4113.33333333 , 4242.56410256 , 4521.53846154 , 4354.35897436 , 3845.64102564 , 4368.20512821 , 4020.51282051 , 1789.0 , 1677.0 , 4.071 , 0.0 , 0.0 , 0.0 , 0.0 , 

18.0 , 4482.05128205 , 3967.69230769 , 4380.0 , 4374.87179487 , 4288.71794872 , 4008.20512821 , 4193.33333333 , 4146.15384615 , 4259.48717949 , 4522.56410256 , 4369.74358974 , 3837.43589744 , 4370.25641026 , 4021.53846154 , 1812.0 , 1708.0 , 4.078 , 0.0 , 0.0 , 0.0 , 0.0 , 

19.0 , 4497.94871795 , 4013.33333333 , 4318.97435897 , 4365.64102564 , 4238.97435897 , 4015.8974359 , 4155.8974359 , 4138.97435897 , 4262.56410256 , 4523.58974359 , 4382.05128205 , 3843.58974359 , 4371.28205128 , 4018.97435897 , 1819.0 , 1727.0 , 4.086 , 0.0 , 0.0 , 0.0 , 0.0 , 

20.0 , 4489.23076923 , 3996.41025641 , 4335.8974359 , 4347.69230769 , 4320.0 , 4029.23076923 , 4192.82051282 , 4117.43589744 , 4251.28205128 , 4519.48717949 , 4380.51282051 , 3871.79487179 , 4373.84615385 , 4030.25641026 , 1834.0 , 1734.0 , 4.094 , 0.0 , 0.0 , 0.0 , 0.0 , 

21.0 , 4486.15384615 , 3986.15384615 , 4329.23076923 , 4297.43589744 , 4372.30769231 , 4027.17948718 , 4211.28205128 , 4104.1025641 , 4245.12820513 , 4516.41025641 , 4389.23076923 , 3867.69230769 , 4372.30769231 , 4016.41025641 , 1838.0 , 1742.0 , 4.102 , 0.0 , 0.0 , 0.0 , 0.0 , 

22.0 , 4501.02564103 , 4007.17948718 , 4276.92307692 , 4257.94871795 , 4243.58974359 , 3998.97435897 , 4161.53846154 , 4098.97435897 , 4249.23076923 , 4521.53846154 , 4403.58974359 , 3848.71794872 , 4366.66666667 , 4006.66666667 , 1835.0 , 1750.0 , 4.11 , 0.0 , 0.0 , 0.0 , 0.0 , 

23.0 , 4497.43589744 , 4014.35897436 , 4289.74358974 , 4322.56410256 , 4148.71794872 , 3981.53846154 , 4133.33333333 , 4106.66666667 , 4251.79487179 , 4527.17948718 , 4382.05128205 , 3840.51282051 , 4365.64102564 , 4043.58974359 , 1824.0 , 1756.0 , 4.117 , 0.0 , 0.0 , 0.0 , 0.0 , 

24.0 , 4460.51282051 , 3954.35897436 , 4303.07692308 , 4366.66666667 , 4161.02564103 , 3954.35897436 , 4131.79487179 , 4115.8974359 , 4242.05128205 , 4522.05128205 , 4346.66666667 , 3844.61538462 , 4365.12820513 , 4057.43589744 , 1812.0 , 1760.0 , 4.125 , 0.0 , 0.0 , 0.0 , 0.0 , 

25.0 , 4403.58974359 , 3846.66666667 , 4267.17948718 , 4325.12820513 , 4160.51282051 , 3889.23076923 , 4110.76923077 , 4086.66666667 , 4226.15384615 , 4517.94871795 , 4341.02564103 , 3831.28205128 , 4357.43589744 , 4020.0 , 1798.0 , 1760.0 , 4.133 , 0.0 , 0.0 , 0.0 , 0.0 , 

26.0 , 4374.35897436 , 3821.53846154 , 4292.30769231 , 4337.43589744 , 4174.87179487 , 3870.76923077 , 4121.02564103 , 4062.56410256 , 4229.23076923 , 4523.07692308 , 4346.66666667 , 3826.66666667 , 4350.25641026 , 4015.8974359 , 1782.0 , 1762.0 , 4.141 , 0.0 , 0.0 , 0.0 , 0.0 , 

27.0 , 4408.20512821 , 3894.87179487 , 4334.35897436 , 4390.25641026 , 4211.79487179 , 3924.61538462 , 4155.8974359 , 4100.0 , 4251.28205128 , 4525.12820513 , 4345.12820513 , 3851.28205128 , 4356.92307692 , 4045.12820513 , 1769.0 , 1762.0 , 4.149 , 0.0 , 0.0 , 0.0 , 0.0 , 

28.0 , 4458.46153846 , 3936.92307692 , 4309.23076923 , 4375.38461538 , 4186.15384615 , 3957.43589744 , 4159.48717949 , 4148.71794872 , 4259.48717949 , 4520.51282051 , 4349.74358974 , 3880.0 , 4369.74358974 , 4043.07692308 , 1756.0 , 1763.0 , 4.157 , 0.0 , 0.0 , 0.0 , 0.0 , 

29.0 , 4491.79487179 , 3952.30769231 , 4293.33333333 , 4344.61538462 , 4170.76923077 , 3995.38461538 , 4165.12820513 , 4136.41025641 , 4254.87179487 , 4518.97435897 , 4352.82051282 , 3866.66666667 , 4376.41025641 , 4024.1025641 , 1747.0 , 1755.0 , 4.164 , 0.0 , 0.0 , 0.0 , 0.0 , 

30.0 , 4528.71794872 , 3988.71794872 , 4326.66666667 , 4338.97435897 , 4225.12820513 , 4080.51282051 , 4210.25641026 , 4113.33333333 , 4261.02564103 , 4519.48717949 , 4346.66666667 , 3861.53846154 , 4375.8974359 , 4021.02564103 , 1741.0 , 1749.0 , 4.172 , 0.0 , 0.0 , 0.0 , 0.0 , 

31.0 , 4551.79487179 , 4006.66666667 , 4306.66666667 , 4313.33333333 , 4255.38461538 , 4123.58974359 , 4230.76923077 , 4137.94871795 , 4270.76923077 , 4514.87179487 , 4343.07692308 , 3891.79487179 , 4380.0 , 4021.53846154 , 1740.0 , 1744.0 , 4.18 , 0.0 , 0.0 , 0.0 , 0.0 , 

32.0 , 4556.41025641 , 4002.05128205 , 4279.48717949 , 4305.12820513 , 4240.51282051 , 4114.87179487 , 4222.05128205 , 4166.66666667 , 4269.23076923 , 4507.17948718 , 4348.71794872 , 3918.46153846 , 4391.28205128 , 4020.51282051 , 1738.0 , 1738.0 , 4.188 , 0.0 , 0.0 , 0.0 , 0.0 , 

33.0 , 4602.05128205 , 4065.12820513 , 4326.15384615 , 4338.46153846 , 4260.51282051 , 4160.51282051 , 4243.58974359 , 4161.02564103 , 4273.33333333 , 4504.61538462 , 4355.8974359 , 3905.12820513 , 4401.53846154 , 4022.05128205 , 1740.0 , 1729.0 , 4.196 , 0.0 , 0.0 , 0.0 , 0.0 , 

34.0 , 4635.38461538 , 4120.51282051 , 4385.12820513 , 4373.33333333 , 4280.51282051 , 4192.82051282 , 4267.69230769 , 4148.71794872 , 4283.58974359 , 4510.76923077 , 4360.51282051 , 3870.76923077 , 4401.53846154 , 4027.17948718 , 1739.0 , 1719.0 , 4.202 , 0.0 , 0.0 , 0.0 , 0.0 , 

35.0 , 4580.0 , 4074.35897436 , 4376.92307692 , 4410.76923077 , 4241.02564103 , 4128.20512821 , 4240.0 , 4172.30769231 , 4287.69230769 , 4521.53846154 , 4364.1025641 , 3858.46153846 , 4391.79487179 , 4031.79487179 , 1736.0 , 1714.0 , 4.211 , 0.0 , 0.0 , 0.0 , 0.0 , 

36.0 , 4496.41025641 , 3982.56410256 , 4327.69230769 , 4482.05128205 , 4166.66666667 , 4019.48717949 , 4187.69230769 , 4207.69230769 , 4288.20512821 , 4527.17948718 , 4367.69230769 , 3873.84615385 , 4381.53846154 , 4045.64102564 , 1734.0 , 1710.0 , 4.218 , 0.0 , 0.0 , 0.0 , 0.0 , 

37.0 , 4483.07692308 , 3955.8974359 , 4310.25641026 , 4512.82051282 , 4124.61538462 , 3963.58974359 , 4159.48717949 , 4198.97435897 , 4285.64102564 , 4526.15384615 , 4364.61538462 , 3877.94871795 , 4377.94871795 , 4050.25641026 , 1731.0 , 1706.0 , 4.227 , 0.0 , 0.0 , 0.0 , 0.0 , 

38.0 , 4520.51282051 , 3986.66666667 , 4311.28205128 , 4447.17948718 , 4113.33333333 , 3969.74358974 , 4154.87179487 , 4156.41025641 , 4276.41025641 , 4526.15384615 , 4359.48717949 , 3846.66666667 , 4377.94871795 , 4026.15384615 , 1729.0 , 1701.0 , 4.235 , 0.0 , 0.0 , 0.0 , 0.0 , 

39.0 , 4535.8974359 , 3994.35897436 , 4304.61538462 , 4379.48717949 , 4117.94871795 , 4002.56410256 , 4157.43589744 , 4146.66666667 , 4269.23076923 , 4527.69230769 , 4358.46153846 , 3832.30769231 , 4377.94871795 , 4005.64102564 , 1723.0 , 1698.0 , 4.243 , 0.0 , 0.0 , 0.0 , 0.0 , 

40.0 , 4527.69230769 , 3978.46153846 , 4288.20512821 , 4370.25641026 , 4146.15384615 , 4040.0 , 4165.64102564 , 4173.84615385 , 4274.87179487 , 4527.17948718 , 4361.02564103 , 3857.94871795 , 4377.94871795 , 4006.66666667 , 1718.0 , 1694.0 , 4.25 , 0.0 , 0.0 , 0.0 , 0.0 , 

41.0 , 4522.05128205 , 3964.1025641 , 4268.71794872 , 4355.38461538 , 4174.35897436 , 4054.35897436 , 4177.94871795 , 4180.51282051 , 4274.87179487 , 4526.66666667 , 4361.53846154 , 3891.79487179 , 4375.8974359 , 4004.1025641 , 1712.0 , 1694.0 , 4.258 , 0.0 , 0.0 , 0.0 , 0.0 , 

42.0 , 4516.41025641 , 3952.82051282 , 4264.61538462 , 4320.51282051 , 4211.28205128 , 4061.53846154 , 4192.82051282 , 4155.38461538 , 4265.12820513 , 4526.15384615 , 4359.48717949 , 3895.38461538 , 4375.8974359 , 3997.43589744 , 1716.0 , 1696.0 , 4.266 , 0.0 , 0.0 , 0.0 , 0.0 , 

43.0 , 4497.94871795 , 3931.28205128 , 4294.87179487 , 4321.02564103 , 4261.53846154 , 4072.82051282 , 4208.71794872 , 4141.53846154 , 4262.56410256 , 4526.15384615 , 4356.92307692 , 3880.51282051 , 4379.48717949 , 4000.51282051 , 1722.0 , 1695.0 , 4.274 , 0.0 , 0.0 , 0.0 , 0.0 , 

44.0 , 4482.56410256 , 3930.25641026 , 4314.87179487 , 4351.28205128 , 4279.48717949 , 4066.15384615 , 4212.30769231 , 4153.84615385 , 4267.17948718 , 4525.64102564 , 4356.41025641 , 3868.71794872 , 4379.48717949 , 4006.66666667 , 1721.0 , 1697.0 , 4.282 , 0.0 , 0.0 , 0.0 , 0.0 , 

45.0 , 4488.20512821 , 3951.28205128 , 4314.87179487 , 4378.46153846 , 4246.15384615 , 4032.30769231 , 4200.51282051 , 4168.20512821 , 4267.69230769 , 4525.64102564 , 4359.48717949 , 3875.38461538 , 4374.87179487 , 4012.82051282 , 1714.0 , 1701.0 , 4.289 , 0.0 , 0.0 , 0.0 , 0.0 , 

46.0 , 4506.15384615 , 3958.97435897 , 4301.53846154 , 4386.15384615 , 4205.64102564 , 4005.64102564 , 4180.0 , 4163.07692308 , 4265.12820513 , 4525.64102564 , 4361.02564103 , 3875.8974359 , 4375.38461538 , 4016.41025641 , 1709.0 , 1706.0 , 4.297 , 0.0 , 0.0 , 0.0 , 0.0 , 

47.0 , 4503.07692308 , 3961.02564103 , 4323.58974359 , 4394.87179487 , 4187.17948718 , 4001.02564103 , 4178.97435897 , 4150.76923077 , 4266.15384615 , 4525.64102564 , 4360.51282051 , 3871.79487179 , 4377.43589744 , 4016.92307692 , 1711.0 , 1708.0 , 4.305 , 0.0 , 0.0 , 0.0 , 0.0 , 

48.0 , 4496.92307692 , 3999.48717949 , 4372.82051282 , 4400.51282051 , 4180.0 , 4032.30769231 , 4191.79487179 , 4140.51282051 , 4264.1025641 , 4525.64102564 , 4357.94871795 , 3853.33333333 , 4373.84615385 , 4013.84615385 , 1713.0 , 1709.0 , 4.313 , 0.0 , 0.0 , 0.0 , 0.0 , 

49.0 , 4523.58974359 , 4030.25641026 , 4363.07692308 , 4388.20512821 , 4143.58974359 , 4061.02564103 , 4183.07692308 , 4142.05128205 , 4262.56410256 , 4525.64102564 , 4355.8974359 , 3836.92307692 , 4371.79487179 , 4010.25641026 , 1715.0 , 1707.0 , 4.321 , 0.0 , 0.0 , 0.0 , 0.0 , 

50.0 , 4557.43589744 , 4011.79487179 , 4301.02564103 , 4400.0 , 4109.23076923 , 4033.33333333 , 4150.76923077 , 4152.82051282 , 4269.23076923 , 4525.64102564 , 4356.92307692 , 3841.53846154 , 4373.84615385 , 4016.41025641 , 1713.0 , 1703.0 , 4.328 , 0.0 , 0.0 , 0.0 , 0.0 , 

51.0 , 4543.07692308 , 3975.38461538 , 4291.79487179 , 4438.46153846 , 4138.97435897 , 3981.53846154 , 4143.07692308 , 4160.51282051 , 4275.38461538 , 4525.64102564 , 4360.0 , 3861.02564103 , 4375.8974359 , 4030.76923077 , 1709.0 , 1700.0 , 4.335 , 0.0 , 0.0 , 0.0 , 0.0 , 

52.0 , 4503.58974359 , 3955.38461538 , 4324.1025641 , 4434.87179487 , 4200.51282051 , 3986.66666667 , 4168.71794872 , 4158.46153846 , 4268.20512821 , 4525.64102564 , 4358.97435897 , 3861.53846154 , 4375.8974359 , 4025.64102564 , 1703.0 , 1693.0 , 4.343 , 0.0 , 0.0 , 0.0 , 0.0 , 

53.0 , 4484.1025641 , 3942.56410256 , 4328.20512821 , 4390.25641026 , 4227.69230769 , 4025.12820513 , 4190.25641026 , 4160.51282051 , 4261.53846154 , 4525.64102564 , 4355.8974359 , 3854.35897436 , 4377.94871795 , 4005.12820513 , 1702.0 , 1687.0 , 4.352 , 0.0 , 0.0 , 0.0 , 0.0 , 

54.0 , 4486.15384615 , 3945.12820513 , 4331.28205128 , 4365.12820513 , 4235.8974359 , 4044.61538462 , 4199.48717949 , 4161.02564103 , 4263.07692308 , 4525.64102564 , 4354.87179487 , 3867.17948718 , 4378.97435897 , 3997.43589744 , 1710.0 , 1684.0 , 4.359 , 0.0 , 0.0 , 0.0 , 0.0 , 

55.0 , 4497.94871795 , 3960.51282051 , 4331.79487179 , 4365.64102564 , 4241.53846154 , 4051.79487179 , 4200.51282051 , 4149.74358974 , 4263.58974359 , 4525.64102564 , 4358.97435897 , 3882.56410256 , 4377.43589744 , 4002.05128205 , 1716.0 , 1680.0 , 4.367 , 0.0 , 0.0 , 0.0 , 0.0 , 

56.0 , 4507.17948718 , 3958.46153846 , 4317.43589744 , 4371.28205128 , 4228.20512821 , 4047.17948718 , 4195.8974359 , 4146.66666667 , 4262.05128205 , 4525.64102564 , 4366.15384615 , 3881.02564103 , 4372.82051282 , 4000.51282051 , 1719.0 , 1680.0 , 4.375 , 0.0 , 0.0 , 0.0 , 0.0 , 

57.0 , 4510.76923077 , 3953.84615385 , 4315.38461538 , 4372.82051282 , 4214.35897436 , 4037.94871795 , 4190.25641026 , 4149.23076923 , 4262.56410256 , 4525.64102564 , 4366.15384615 , 3857.94871795 , 4371.28205128 , 3994.87179487 , 1721.0 , 1681.0 , 4.383 , 0.0 , 0.0 , 0.0 , 0.0 , 

58.0 , 4511.79487179 , 3951.79487179 , 4326.66666667 , 4371.79487179 , 4214.35897436 , 4036.41025641 , 4189.74358974 , 4149.74358974 , 4263.58974359 , 4525.64102564 , 4364.61538462 , 3854.87179487 , 4373.84615385 , 3995.8974359 , 1722.0 , 1682.0 , 4.39 , 0.0 , 0.0 , 0.0 , 0.0 , 

59.0 , 4503.58974359 , 3945.12820513 , 4323.07692308 , 4383.58974359 , 4218.97435897 , 4035.38461538 , 4189.74358974 , 4152.82051282 , 4265.12820513 , 4525.64102564 , 4370.76923077 , 3878.97435897 , 4375.38461538 , 3997.43589744 , 1722.0 , 1680.0 , 4.399 , 0.0 , 0.0 , 0.0 , 0.0 , 

60.0 , 4490.76923077 , 3938.46153846 , 4326.15384615 , 4398.97435897 , 4221.02564103 , 4025.64102564 , 4190.25641026 , 4161.53846154 , 4265.64102564 , 4525.64102564 , 4370.76923077 , 3891.28205128 , 4373.84615385 , 3997.43589744 , 1718.0 , 1680.0 , 4.407 , 0.0 , 0.0 , 0.0 , 0.0 , 

61.0 , 4494.87179487 , 3954.87179487 , 4340.0 , 4397.94871795 , 4217.94871795 , 4019.48717949 , 4184.61538462 , 4161.53846154 , 4264.61538462 , 4526.15384615 , 4360.0 , 3862.05128205 , 4373.33333333 , 4001.53846154 , 1718.0 , 1679.0 , 4.415 , 0.0 , 0.0 , 0.0 , 0.0 , 

62.0 , 4503.58974359 , 3966.66666667 , 4351.79487179 , 4406.66666667 , 4197.43589744 , 4000.51282051 , 4177.43589744 , 4154.87179487 , 4265.64102564 , 4526.66666667 , 4355.8974359 , 3845.64102564 , 4374.87179487 , 4012.30769231 , 1715.0 , 1678.0 , 4.421 , 0.0 , 0.0 , 0.0 , 0.0 , 

63.0 , 4513.84615385 , 3975.8974359 , 4350.76923077 , 4426.66666667 , 4177.94871795 , 3982.56410256 , 4169.74358974 , 4146.66666667 , 4266.66666667 , 4525.64102564 , 4358.46153846 , 3845.12820513 , 4373.33333333 , 4022.56410256 , 1714.0 , 1679.0 , 4.429 , 0.0 , 0.0 , 0.0 , 0.0 , 

64.0 , 4525.12820513 , 3983.58974359 , 4345.64102564 , 4423.58974359 , 4183.07692308 , 3982.56410256 , 4167.69230769 , 4144.1025641 , 4264.1025641 , 4526.15384615 , 4356.92307692 , 3843.58974359 , 4370.76923077 , 4024.61538462 , 1713.0 , 1679.0 , 4.437 , 0.0 , 0.0 , 0.0 , 0.0 , 

65.0 , 4516.41025641 , 3981.02564103 , 4339.48717949 , 4403.07692308 , 4207.17948718 , 4004.1025641 , 4177.94871795 , 4146.15384615 , 4262.56410256 , 4524.61538462 , 4354.87179487 , 3847.69230769 , 4372.30769231 , 4014.35897436 , 1711.0 , 1681.0 , 4.445 , 0.0 , 0.0 , 0.0 , 0.0 , 

66.0 , 4489.23076923 , 3964.1025641 , 4337.94871795 , 4381.53846154 , 4231.28205128 , 4031.28205128 , 4196.92307692 , 4147.69230769 , 4264.1025641 , 4521.53846154 , 4359.48717949 , 3867.69230769 , 4377.43589744 , 4002.56410256 , 1712.0 , 1683.0 , 4.453 , 0.0 , 0.0 , 0.0 , 0.0 , 

67.0 , 4486.66666667 , 3953.84615385 , 4329.23076923 , 4357.43589744 , 4257.43589744 , 4054.87179487 , 4206.15384615 , 4148.20512821 , 4265.12820513 , 4521.02564103 , 4361.53846154 , 3875.38461538 , 4376.92307692 , 3997.94871795 , 1711.0 , 1687.0 , 4.462 , 0.0 , 0.0 , 0.0 , 0.0 , 

68.0 , 4504.61538462 , 3947.17948718 , 4317.43589744 , 4343.58974359 , 4270.25641026 , 4055.38461538 , 4204.61538462 , 4148.20512821 , 4263.58974359 , 4521.53846154 , 4358.46153846 , 3877.94871795 , 4376.41025641 , 4002.05128205 , 1714.0 , 1691.0 , 4.468 , 0.0 , 0.0 , 0.0 , 0.0 , 

69.0 , 4508.71794872 , 3949.74358974 , 4320.51282051 , 4358.97435897 , 4254.35897436 , 4038.97435897 , 4201.02564103 , 4144.1025641 , 4263.58974359 , 4521.53846154 , 4355.8974359 , 3878.46153846 , 4376.92307692 , 4010.25641026 , 1717.0 , 1693.0 , 4.476 , 0.0 , 0.0 , 0.0 , 0.0 , 

70.0 , 4507.17948718 , 3969.74358974 , 4330.76923077 , 4385.12820513 , 4220.51282051 , 4024.61538462 , 4190.76923077 , 4144.1025641 , 4264.61538462 , 4523.07692308 , 4357.94871795 , 3865.64102564 , 4374.87179487 , 4016.92307692 , 1720.0 , 1696.0 , 4.484 , 0.0 , 0.0 , 0.0 , 0.0 , 

71.0 , 4519.48717949 , 3989.23076923 , 4335.38461538 , 4395.38461538 , 4183.58974359 , 4013.33333333 , 4179.48717949 , 4150.76923077 , 4263.58974359 , 4526.15384615 , 4358.97435897 , 3853.84615385 , 4371.79487179 , 4013.33333333 , 1720.0 , 1696.0 , 4.492 , 0.0 , 0.0 , 0.0 , 0.0 , 

72.0 , 4539.48717949 , 3992.82051282 , 4328.20512821 , 4393.33333333 , 4161.02564103 , 4002.05128205 , 4170.25641026 , 4151.28205128 , 4263.07692308 , 4526.15384615 , 4358.97435897 , 3853.84615385 , 4373.84615385 , 4010.25641026 , 1719.0 , 1699.0 , 4.501 , 0.0 , 0.0 , 0.0 , 0.0 , 

73.0 , 4533.84615385 , 3983.07692308 , 4327.69230769 , 4392.82051282 , 4173.33333333 , 4004.1025641 , 4172.30769231 , 4150.76923077 , 4265.12820513 , 4525.64102564 , 4361.53846154 , 3858.46153846 , 4372.82051282 , 4013.33333333 , 1716.0 , 1699.0 , 4.507 , 0.0 , 0.0 , 0.0 , 0.0 , 

74.0 , 4509.23076923 , 3973.33333333 , 4335.38461538 , 4395.38461538 , 4203.07692308 , 4019.48717949 , 4181.53846154 , 4152.30769231 , 4266.15384615 , 4526.15384615 , 4362.56410256 , 3857.43589744 , 4370.25641026 , 4013.33333333 , 1713.0 , 1701.0 , 4.515 , 0.0 , 0.0 , 0.0 , 0.0 , 

75.0 , 4490.25641026 , 3958.46153846 , 4341.02564103 , 4395.38461538 , 4218.46153846 , 4028.71794872 , 4192.30769231 , 4154.87179487 , 4264.1025641 , 4526.15384615 , 4361.02564103 , 3867.17948718 , 4370.25641026 , 4008.71794872 , 1713.0 , 1697.0 , 4.523 , 0.0 , 0.0 , 0.0 , 0.0 , 

76.0 , 4477.94871795 , 3948.20512821 , 4333.84615385 , 4392.82051282 , 4229.23076923 , 4042.56410256 , 4196.41025641 , 4155.8974359 , 4264.1025641 , 4526.15384615 , 4358.97435897 , 3875.38461538 , 4372.30769231 , 4004.1025641 , 1713.0 , 1695.0 , 4.532 , 0.0 , 0.0 , 0.0 , 0.0 , 

77.0 , 4471.79487179 , 3946.15384615 , 4334.87179487 , 4391.28205128 , 4232.30769231 , 4047.69230769 , 4197.43589744 , 4151.28205128 , 4264.1025641 , 4526.15384615 , 4357.94871795 , 3874.35897436 , 4375.38461538 , 4001.53846154 , 1715.0 , 1691.0 , 4.54 , 0.0 , 0.0 , 0.0 , 0.0 , 

78.0 , 4489.23076923 , 3955.38461538 , 4333.33333333 , 4386.15384615 , 4227.17948718 , 4039.48717949 , 4195.8974359 , 4142.56410256 , 4263.07692308 , 4526.15384615 , 4357.94871795 , 3866.66666667 , 4375.8974359 , 4003.58974359 , 1714.0 , 1689.0 , 4.548 , 0.0 , 0.0 , 0.0 , 0.0 , 

79.0 , 4509.74358974 , 3956.41025641 , 4325.64102564 , 4380.0 , 4227.17948718 , 4031.28205128 , 4194.35897436 , 4148.71794872 , 4263.07692308 , 4526.15384615 , 4357.94871795 , 3872.30769231 , 4373.33333333 , 4011.28205128 , 1715.0 , 1687.0 , 4.555 , 0.0 , 0.0 , 0.0 , 0.0 , 

80.0 , 4510.25641026 , 3956.92307692 , 4320.51282051 , 4379.48717949 , 4230.76923077 , 4036.41025641 , 4192.82051282 , 4157.94871795 , 4263.58974359 , 4526.15384615 , 4356.41025641 , 3873.84615385 , 4372.82051282 , 4011.28205128 , 1716.0 , 1689.0 , 4.563 , 0.0 , 0.0 , 0.0 , 0.0 , 

81.0 , 4501.53846154 , 3956.92307692 , 4326.15384615 , 4386.15384615 , 4219.48717949 , 4032.82051282 , 4192.82051282 , 4154.35897436 , 4263.07692308 , 4525.64102564 , 4356.41025641 , 3871.28205128 , 4376.41025641 , 4009.23076923 , 1722.0 , 1691.0 , 4.571 , 0.0 , 0.0 , 0.0 , 0.0 , 

82.0 , 4506.15384615 , 3964.61538462 , 4329.23076923 , 4388.20512821 , 4210.25641026 , 4026.15384615 , 4188.71794872 , 4147.69230769 , 4264.1025641 , 4526.15384615 , 4358.97435897 , 3863.07692308 , 4374.87179487 , 4011.28205128 , 1724.0 , 1689.0 , 4.579 , 0.0 , 0.0 , 0.0 , 0.0 , 

83.0 , 4520.0 , 3976.41025641 , 4330.76923077 , 4383.58974359 , 4202.05128205 , 4022.56410256 , 4181.53846154 , 4148.20512821 , 4264.61538462 , 4526.66666667 , 4358.97435897 , 3853.33333333 , 4373.84615385 , 4012.82051282 , 1722.0 , 1694.0 , 4.587 , 0.0 , 0.0 , 0.0 , 0.0 , 

84.0 , 4536.92307692 , 3987.69230769 , 4329.23076923 , 4378.97435897 , 4182.56410256 , 4020.51282051 , 4178.46153846 , 4148.20512821 , 4263.58974359 , 4523.58974359 , 4354.87179487 , 3852.30769231 , 4375.38461538 , 4010.25641026 , 1718.0 , 1696.0 , 4.594 , 0.0 , 0.0 , 0.0 , 0.0 , 

85.0 , 4543.07692308 , 3991.28205128 , 4315.8974359 , 4375.38461538 , 4172.82051282 , 4014.87179487 , 4175.38461538 , 4147.17948718 , 4263.07692308 , 4522.56410256 , 4351.79487179 , 3860.51282051 , 4375.8974359 , 4008.71794872 , 1717.0 , 1700.0 , 4.602 , 0.0 , 0.0 , 0.0 , 0.0 , 

86.0 , 4522.05128205 , 3983.58974359 , 4320.51282051 , 4374.35897436 , 4183.58974359 , 4010.76923077 , 4172.82051282 , 4148.20512821 , 4266.66666667 , 4525.12820513 , 4354.35897436 , 3862.56410256 , 4372.82051282 , 4008.20512821 , 1716.0 , 1702.0 , 4.61 , 0.0 , 0.0 , 0.0 , 0.0 , 

87.0 , 4487.17948718 , 3967.69230769 , 4343.07692308 , 4375.38461538 , 4194.35897436 , 4024.1025641 , 4175.8974359 , 4147.69230769 , 4263.58974359 , 4526.15384615 , 4357.43589744 , 3857.94871795 , 4371.28205128 , 4004.61538462 , 1713.0 , 1706.0 , 4.618 , 0.0 , 0.0 , 0.0 , 0.0 , 

88.0 , 4488.71794872 , 3961.53846154 , 4345.12820513 , 4371.28205128 , 4200.0 , 4043.58974359 , 4186.66666667 , 4147.69230769 , 4261.02564103 , 4525.12820513 , 4355.8974359 , 3859.48717949 , 4372.30769231 , 4004.61538462 , 1713.0 , 1707.0 , 4.626 , 0.0 , 0.0 , 0.0 , 0.0 , 

89.0 , 4521.53846154 , 3975.38461538 , 4317.43589744 , 4367.17948718 , 4210.25641026 , 4050.76923077 , 4191.28205128 , 4147.69230769 , 4269.23076923 , 4526.15384615 , 4356.41025641 , 3863.07692308 , 4372.30769231 , 4008.71794872 , 1713.0 , 1707.0 , 4.634 , 0.0 , 0.0 , 0.0 , 0.0 , 

90.0 , 4498.97435897 , 3964.1025641 , 4320.0 , 4392.82051282 , 4223.58974359 , 4046.15384615 , 4190.76923077 , 4149.23076923 , 4271.79487179 , 4526.66666667 , 4361.53846154 , 3877.94871795 , 4374.35897436 , 4010.25641026 , 1717.0 , 1706.0 , 4.641 , 0.0 , 0.0 , 0.0 , 0.0 , 

91.0 , 4444.61538462 , 3937.43589744 , 4346.66666667 , 4433.33333333 , 4242.56410256 , 4043.58974359 , 4192.30769231 , 4155.38461538 , 4264.61538462 , 4525.64102564 , 4361.02564103 , 3874.87179487 , 4375.38461538 , 4010.25641026 , 1718.0 , 1703.0 , 4.649 , 0.0 , 0.0 , 0.0 , 0.0 , 

92.0 , 4457.43589744 , 3937.94871795 , 4356.41025641 , 4433.33333333 , 4250.25641026 , 4033.84615385 , 4196.92307692 , 4158.46153846 , 4263.58974359 , 4525.64102564 , 4360.0 , 3856.41025641 , 4371.28205128 , 4016.41025641 , 1718.0 , 1701.0 , 4.657 , 0.0 , 0.0 , 0.0 , 0.0 , 

93.0 , 4506.66666667 , 3965.12820513 , 4342.56410256 , 4398.97435897 , 4235.8974359 , 4027.17948718 , 4196.92307692 , 4149.74358974 , 4266.66666667 , 4526.15384615 , 4362.05128205 , 3853.84615385 , 4371.79487179 , 4016.41025641 , 1718.0 , 1700.0 , 4.665 , 0.0 , 0.0 , 0.0 , 0.0 , 

94.0 , 4514.87179487 , 3971.79487179 , 4332.82051282 , 4380.0 , 4215.38461538 , 4026.15384615 , 4193.84615385 , 4144.61538462 , 4264.1025641 , 4525.64102564 , 4362.05128205 , 3876.41025641 , 4374.87179487 , 4008.20512821 , 1715.0 , 1698.0 , 4.673 , 0.0 , 0.0 , 0.0 , 0.0 , 

95.0 , 4510.25641026 , 3972.30769231 , 4324.61538462 , 4377.43589744 , 4207.17948718 , 4032.30769231 , 4188.20512821 , 4147.17948718 , 4262.56410256 , 4525.64102564 , 4358.46153846 , 3873.33333333 , 4373.84615385 , 4006.15384615 , 1716.0 , 1695.0 , 4.68 , 0.0 , 0.0 , 0.0 , 0.0 , 

96.0 , 4516.92307692 , 3969.74358974 , 4314.87179487 , 4373.84615385 , 4201.02564103 , 4031.28205128 , 4184.1025641 , 4150.25641026 , 4264.61538462 , 4526.15384615 , 4358.97435897 , 3861.02564103 , 4372.30769231 , 4008.71794872 , 1716.0 , 1693.0 , 4.688 , 0.0 , 0.0 , 0.0 , 0.0 , 

97.0 , 4527.17948718 , 3969.74358974 , 4313.33333333 , 4373.33333333 , 4201.53846154 , 4031.79487179 , 4183.58974359 , 4152.30769231 , 4264.1025641 , 4524.61538462 , 4358.46153846 , 3854.87179487 , 4374.35897436 , 4004.1025641 , 1717.0 , 1689.0 , 4.696 , 0.0 , 0.0 , 0.0 , 0.0 , 

98.0 , 4545.12820513 , 3977.94871795 , 4318.46153846 , 4374.87179487 , 4203.07692308 , 4031.79487179 , 4187.69230769 , 4151.79487179 , 4265.12820513 , 4523.58974359 , 4355.38461538 , 3852.30769231 , 4375.38461538 , 4004.1025641 , 1715.0 , 1690.0 , 4.704 , 0.0 , 0.0 , 0.0 , 0.0 , 

99.0 , 4555.8974359 , 3986.15384615 , 4315.38461538 , 4374.87179487 , 4199.48717949 , 4027.17948718 , 4187.17948718 , 4147.69230769 , 4266.15384615 , 4524.1025641 , 4355.8974359 , 3859.48717949 , 4375.38461538 , 4010.25641026 , 1715.0 , 1689.0 , 4.712 , 0.0 , 0.0 , 0.0 , 0.0 , 

100.0 , 4531.79487179 , 3974.87179487 , 4316.41025641 , 4381.02564103 , 4210.25641026 , 4023.58974359 , 4184.61538462 , 4147.69230769 , 4265.12820513 , 4524.61538462 , 4357.94871795 , 3870.25641026 , 4375.38461538 , 4011.28205128 , 1714.0 , 1689.0 , 4.72 , 0.0 , 0.0 , 0.0 , 0.0 , 

101.0 , 4507.17948718 , 3961.02564103 , 4332.30769231 , 4389.74358974 , 4239.48717949 , 4027.17948718 , 4190.76923077 , 4151.28205128 , 4263.58974359 , 4525.12820513 , 4357.94871795 , 3864.61538462 , 4374.35897436 , 4010.76923077 , 1717.0 , 1691.0 , 4.727 , 0.0 , 0.0 , 0.0 , 0.0 , 

102.0 , 4496.41025641 , 3957.94871795 , 4344.61538462 , 4393.33333333 , 4256.41025641 , 4033.84615385 , 4198.46153846 , 4152.30769231 , 4263.58974359 , 4526.15384615 , 4358.46153846 , 3850.25641026 , 4374.87179487 , 4015.8974359 , 1717.0 , 1691.0 , 4.734 , 0.0 , 0.0 , 0.0 , 0.0 , 

103.0 , 4490.25641026 , 3954.35897436 , 4342.56410256 , 4396.41025641 , 4241.02564103 , 4031.28205128 , 4199.48717949 , 4152.30769231 , 4264.1025641 , 4524.1025641 , 4358.46153846 , 3857.43589744 , 4374.87179487 , 4017.43589744 , 1718.0 , 1693.0 , 4.743 , 0.0 , 0.0 , 0.0 , 0.0 , 

104.0 , 4497.94871795 , 3962.05128205 , 4330.76923077 , 4396.41025641 , 4218.97435897 , 4023.58974359 , 4192.82051282 , 4149.23076923 , 4263.58974359 , 4523.07692308 , 4357.43589744 , 3869.23076923 , 4375.38461538 , 4012.30769231 , 1719.0 , 1694.0 , 4.751 , 0.0 , 0.0 , 0.0 , 0.0 , 

105.0 , 4510.25641026 , 3970.76923077 , 4332.30769231 , 4394.87179487 , 4207.17948718 , 4016.92307692 , 4187.69230769 , 4147.69230769 , 4263.58974359 , 4524.1025641 , 4358.97435897 , 3869.74358974 , 4374.87179487 , 4011.28205128 , 1720.0 , 1696.0 , 4.759 , 0.0 , 0.0 , 0.0 , 0.0 , 

106.0 , 4516.92307692 , 3974.87179487 , 4336.41025641 , 4392.30769231 , 4204.1025641 , 4015.8974359 , 4185.64102564 , 4147.17948718 , 4264.1025641 , 4522.56410256 , 4360.51282051 , 3860.0 , 4373.33333333 , 4012.82051282 , 1721.0 , 1697.0 , 4.765 , 0.0 , 0.0 , 0.0 , 0.0 , 

107.0 , 4517.94871795 , 3974.87179487 , 4336.41025641 , 4388.71794872 , 4201.02564103 , 4015.8974359 , 4186.66666667 , 4147.17948718 , 4264.61538462 , 4523.58974359 , 4359.48717949 , 3858.46153846 , 4374.35897436 , 4010.25641026 , 1721.0 , 1699.0 , 4.774 , 0.0 , 0.0 , 0.0 , 0.0 , 

108.0 , 4521.02564103 , 3976.92307692 , 4327.69230769 , 4386.66666667 , 4200.51282051 , 4017.43589744 , 4185.12820513 , 4149.23076923 , 4265.12820513 , 4527.69230769 , 4360.0 , 3862.56410256 , 4375.8974359 , 4008.20512821 , 1720.0 , 1699.0 , 4.781 , 0.0 , 0.0 , 0.0 , 0.0 , 

109.0 , 4517.94871795 , 3972.30769231 , 4327.69230769 , 4390.25641026 , 4204.1025641 , 4018.46153846 , 4185.12820513 , 4152.82051282 , 4265.12820513 , 4526.66666667 , 4362.05128205 , 3869.74358974 , 4374.35897436 , 4011.28205128 , 1719.0 , 1701.0 , 4.79 , 0.0 , 0.0 , 0.0 , 0.0 , 

110.0 , 4511.28205128 , 3967.69230769 , 4329.74358974 , 4391.79487179 , 4211.79487179 , 4026.15384615 , 4187.69230769 , 4150.25641026 , 4266.66666667 , 4523.07692308 , 4358.97435897 , 3867.17948718 , 4373.84615385 , 4011.79487179 , 1718.0 , 1701.0 , 4.798 , 0.0 , 0.0 , 0.0 , 0.0 , 

111.0 , 4500.51282051 , 3958.46153846 , 4332.82051282 , 4392.30769231 , 4218.97435897 , 4028.71794872 , 4192.30769231 , 4148.20512821 , 4267.69230769 , 4521.53846154 , 4354.87179487 , 3866.66666667 , 4375.38461538 , 4008.71794872 , 1718.0 , 1702.0 , 4.806 , 0.0 , 0.0 , 0.0 , 0.0 , 

112.0 , 4499.48717949 , 3957.43589744 , 4334.87179487 , 4390.76923077 , 4223.58974359 , 4031.79487179 , 4193.33333333 , 4148.20512821 , 4265.12820513 , 4522.05128205 , 4355.8974359 , 3863.07692308 , 4375.8974359 , 4008.20512821 , 1717.0 , 1700.0 , 4.812 , 0.0 , 0.0 , 0.0 , 0.0 , 

113.0 , 4512.30769231 , 3964.1025641 , 4333.33333333 , 4386.15384615 , 4223.58974359 , 4033.33333333 , 4190.76923077 , 4148.20512821 , 4263.58974359 , 4523.07692308 , 4356.41025641 , 3862.05128205 , 4374.35897436 , 4010.76923077 , 1718.0 , 1701.0 , 4.821 , 0.0 , 0.0 , 0.0 , 0.0 , 

114.0 , 4525.12820513 , 3971.28205128 , 4324.1025641 , 4378.97435897 , 4225.12820513 , 4032.82051282 , 4190.76923077 , 4148.20512821 , 4265.12820513 , 4526.15384615 , 4355.38461538 , 3861.53846154 , 4372.82051282 , 4010.25641026 , 1718.0 , 1699.0 , 4.828 , 0.0 , 0.0 , 0.0 , 0.0 , 

115.0 , 4525.12820513 , 3968.20512821 , 4316.92307692 , 4374.87179487 , 4221.53846154 , 4023.07692308 , 4192.30769231 , 4148.20512821 , 4266.15384615 , 4527.17948718 , 4358.46153846 , 3869.74358974 , 4373.84615385 , 4009.74358974 , 1719.0 , 1698.0 , 4.837 , 0.0 , 0.0 , 0.0 , 0.0 , 

116.0 , 4521.53846154 , 3968.20512821 , 4323.07692308 , 4378.46153846 , 4215.38461538 , 4022.05128205 , 4190.76923077 , 4146.15384615 , 4264.61538462 , 4526.15384615 , 4360.0 , 3869.23076923 , 4375.8974359 , 4012.82051282 , 1719.0 , 1695.0 , 4.844 , 0.0 , 0.0 , 0.0 , 0.0 , 

117.0 , 4515.8974359 , 3970.25641026 , 4332.82051282 , 4389.23076923 , 4215.8974359 , 4029.74358974 , 4188.20512821 , 4147.69230769 , 4264.1025641 , 4525.64102564 , 4355.8974359 , 3851.28205128 , 4374.35897436 , 4013.84615385 , 1718.0 , 1693.0 , 4.853 , 0.0 , 0.0 , 0.0 , 0.0 , 

118.0 , 4508.20512821 , 3969.74358974 , 4337.43589744 , 4396.41025641 , 4214.35897436 , 4029.74358974 , 4189.74358974 , 4150.76923077 , 4264.61538462 , 4525.64102564 , 4355.8974359 , 3847.17948718 , 4371.79487179 , 4011.79487179 , 1719.0 , 1689.0 , 4.86 , 0.0 , 0.0 , 0.0 , 0.0 , 

119.0 , 4515.38461538 , 3973.33333333 , 4328.20512821 , 4389.23076923 , 4207.69230769 , 4022.56410256 , 4189.74358974 , 4148.20512821 , 4265.12820513 , 4526.15384615 , 4360.51282051 , 3861.02564103 , 4372.30769231 , 4012.30769231 , 1715.0 , 1689.0 , 4.868 , 0.0 , 0.0 , 0.0 , 0.0 , 

120.0 , 4530.76923077 , 3976.41025641 , 4321.53846154 , 4378.46153846 , 4204.61538462 , 4018.46153846 , 4187.17948718 , 4145.64102564 , 4265.12820513 , 4526.15384615 , 4360.0 , 3872.82051282 , 4373.33333333 , 4014.35897436 , 1717.0 , 1689.0 , 4.876 , 0.0 , 0.0 , 0.0 , 0.0 , 

121.0 , 4534.35897436 , 3978.46153846 , 4322.56410256 , 4378.46153846 , 4211.79487179 , 4024.1025641 , 4184.61538462 , 4145.64102564 , 4263.07692308 , 4524.1025641 , 4357.43589744 , 3860.0 , 4374.35897436 , 4012.82051282 , 1717.0 , 1689.0 , 4.884 , 0.0 , 0.0 , 0.0 , 0.0 , 

122.0 , 4521.02564103 , 3975.38461538 , 4329.74358974 , 4388.71794872 , 4214.35897436 , 4026.15384615 , 4185.64102564 , 4148.71794872 , 4263.58974359 , 4523.58974359 , 4358.97435897 , 3854.35897436 , 4373.84615385 , 4011.28205128 , 1715.0 , 1691.0 , 4.892 , 0.0 , 0.0 , 0.0 , 0.0 , 

123.0 , 4517.43589744 , 3978.97435897 , 4327.69230769 , 4393.84615385 , 4209.23076923 , 4025.64102564 , 4184.61538462 , 4148.71794872 , 4266.66666667 , 4526.66666667 , 4358.46153846 , 3857.43589744 , 4373.33333333 , 4012.30769231 , 1714.0 , 1693.0 , 4.899 , 0.0 , 0.0 , 0.0 , 0.0 , 

124.0 , 4520.0 , 3976.92307692 , 4332.30769231 , 4391.79487179 , 4206.66666667 , 4026.15384615 , 4187.17948718 , 4149.74358974 , 4265.64102564 , 4528.20512821 , 4357.43589744 , 3862.56410256 , 4372.82051282 , 4012.82051282 , 1712.0 , 1696.0 , 4.907 , 0.0 , 0.0 , 0.0 , 0.0 , 

125.0 , 4508.71794872 , 3971.28205128 , 4337.94871795 , 4392.82051282 , 4218.97435897 , 4035.38461538 , 4192.82051282 , 4149.74358974 , 4263.58974359 , 4526.15384615 , 4357.43589744 , 3856.92307692 , 4373.33333333 , 4010.76923077 , 1714.0 , 1697.0 , 4.914 , 0.0 , 0.0 , 0.0 , 0.0 , 

126.0 , 4491.28205128 , 3962.05128205 , 4337.43589744 , 4396.92307692 , 4227.17948718 , 4037.43589744 , 4196.92307692 , 4149.74358974 , 4264.1025641 , 4525.12820513 , 4357.43589744 , 3859.48717949 , 4373.84615385 , 4009.23076923 , 1714.0 , 1700.0 , 4.923 , 0.0 , 0.0 , 0.0 , 0.0 , 

127.0 , 4493.84615385 , 3961.53846154 , 4331.28205128 , 4393.84615385 , 4219.48717949 , 4035.8974359 , 4192.82051282 , 4151.79487179 , 4265.12820513 , 4526.15384615 , 4355.8974359 , 3865.64102564 , 4373.84615385 , 4008.71794872 , 1715.0 , 1699.0 , 4.931 , 0.0 , 0.0 , 0.0 , 0.0 , 

128.0 , 4506.66666667 , 3967.17948718 , 4333.84615385 , 4390.25641026 , 4210.25641026 , 4032.30769231 , 4187.17948718 , 4151.79487179 , 4265.12820513 , 4526.66666667 , 4355.38461538 , 3862.56410256 , 4373.33333333 , 4010.25641026 , 1715.0 , 1700.0 , 4.939 , 0.0 , 0.0 , 0.0 , 0.0 , 

0.0 , 4507.69230769 , 3975.38461538 , 4337.43589744 , 4394.87179487 , 4210.76923077 , 4030.25641026 , 4186.15384615 , 4148.71794872 , 4266.15384615 , 4526.15384615 , 4356.41025641 , 3851.79487179 , 4374.35897436 , 4009.74358974 , 1716.0 , 1699.0 , 4.946 , 0.0 , 0.0 , 0.0 , 0.0 , 

1.0 , 4502.56410256 , 3973.33333333 , 4337.94871795 , 4395.8974359 , 4212.82051282 , 4026.15384615 , 4188.20512821 , 4152.82051282 , 4265.12820513 , 4525.64102564 , 4360.0 , 3854.87179487 , 4374.87179487 , 4007.17948718 , 1714.0 , 1699.0 , 4.954 , 0.0 , 0.0 , 0.0 , 0.0 , 

2.0 , 4507.17948718 , 3971.79487179 , 4334.87179487 , 4388.71794872 , 4214.35897436 , 4028.71794872 , 4189.74358974 , 4156.41025641 , 4264.61538462 , 4524.61538462 , 4360.51282051 , 3860.51282051 , 4372.30769231 , 4006.66666667 , 1715.0 , 1699.0 , 4.962 , 0.0 , 0.0 , 0.0 , 0.0 , 

3.0 , 4509.74358974 , 3969.23076923 , 4328.71794872 , 4388.20512821 , 4215.8974359 , 4031.28205128 , 4191.79487179 , 4151.28205128 , 4267.69230769 , 4523.58974359 , 4357.94871795 , 3862.56410256 , 4373.33333333 , 4009.23076923 , 1715.0 , 1696.0 , 4.97 , 0.0 , 0.0 , 0.0 , 0.0 , 

4.0 , 4507.69230769 , 3967.17948718 , 4328.20512821 , 4394.87179487 , 4214.87179487 , 4029.23076923 , 4192.82051282 , 4146.15384615 , 4267.69230769 , 4524.1025641 , 4358.46153846 , 3867.17948718 , 4375.38461538 , 4009.74358974 , 1715.0 , 1697.0 , 4.978 , 0.0 , 0.0 , 0.0 , 0.0 , 

5.0 , 4511.28205128 , 3971.28205128 , 4329.74358974 , 4394.87179487 , 4211.79487179 , 4027.69230769 , 4190.25641026 , 4146.15384615 , 4263.07692308 , 4522.56410256 , 4358.97435897 , 3868.71794872 , 4374.87179487 , 4009.74358974 , 1715.0 , 1697.0 , 4.985 , 0.0 , 0.0 , 0.0 , 0.0 , 

6.0 , 4515.8974359 , 3974.87179487 , 4328.71794872 , 4390.76923077 , 4210.76923077 , 4029.23076923 , 4189.23076923 , 4149.74358974 , 4263.07692308 , 4523.07692308 , 4357.43589744 , 3864.61538462 , 4373.33333333 , 4010.76923077 , 1714.0 , 1699.0 , 4.993 , 0.0 , 0.0 , 0.0 , 0.0 , 

7.0 , 4520.0 , 3973.33333333 , 4324.61538462 , 4391.28205128 , 4211.28205128 , 4026.15384615 , 4189.74358974 , 4151.79487179 , 4265.12820513 , 4526.66666667 , 4357.43589744 , 3863.07692308 , 4373.33333333 , 4012.30769231 , 1715.0 , 1700.0 , 5.001 , 0.0 , 0.0 , 0.0 , 0.0 , 

8.0 , 4520.0 , 3972.30769231 , 4327.17948718 , 4393.33333333 , 4209.23076923 , 4019.48717949 , 4191.28205128 , 4148.20512821 , 4265.64102564 , 4526.15384615 , 4360.0 , 3869.23076923 , 4372.82051282 , 4014.35897436 , 1715.0 , 1699.0 , 5.008 , 0.0 , 0.0 , 0.0 , 0.0 , 

9.0 , 4516.92307692 , 3974.87179487 , 4327.69230769 , 4391.28205128 , 4211.79487179 , 4026.66666667 , 4190.76923077 , 4145.12820513 , 4266.15384615 , 4524.1025641 , 4357.94871795 , 3861.53846154 , 4372.30769231 , 4014.35897436 , 1716.0 , 1698.0 , 5.016 , 0.0 , 0.0 , 0.0 , 0.0 , 

10.0 , 4509.74358974 , 3964.61538462 , 4329.23076923 , 4389.74358974 , 4215.8974359 , 4034.35897436 , 4192.30769231 , 4150.25641026 , 4265.64102564 , 4525.12820513 , 4355.38461538 , 3855.8974359 , 4373.33333333 , 4012.82051282 , 1716.0 , 1696.0 , 5.024 , 0.0 , 0.0 , 0.0 , 0.0 , 

11.0 , 4507.69230769 , 3965.64102564 , 4328.20512821 , 4390.76923077 , 4219.48717949 , 4033.33333333 , 4194.87179487 , 4153.84615385 , 4264.61538462 , 4526.66666667 , 4356.41025641 , 3857.94871795 , 4373.84615385 , 4011.79487179 , 1717.0 , 1693.0 , 5.032 , 0.0 , 0.0 , 0.0 , 0.0 , 

12.0 , 4508.20512821 , 3976.92307692 , 4334.35897436 , 4392.30769231 , 4218.97435897 , 4026.66666667 , 4195.8974359 , 4151.79487179 , 4265.64102564 , 4525.64102564 , 4358.46153846 , 3860.51282051 , 4374.87179487 , 4010.76923077 , 1717.0 , 1688.0 , 5.04 , 0.0 , 0.0 , 0.0 , 0.0 , 

13.0 , 4508.71794872 , 3977.43589744 , 4336.92307692 , 4392.30769231 , 4217.43589744 , 4029.23076923 , 4190.76923077 , 4148.71794872 , 4265.64102564 , 4523.58974359 , 4356.92307692 , 3853.84615385 , 4375.8974359 , 4009.23076923 , 1719.0 , 1686.0 , 5.048 , 0.0 , 0.0 , 0.0 , 0.0 , 

14.0 , 4506.15384615 , 3965.12820513 , 4330.76923077 , 4389.74358974 , 4210.25641026 , 4026.66666667 , 4187.17948718 , 4152.30769231 , 4263.07692308 , 4523.58974359 , 4355.8974359 , 3862.56410256 , 4375.8974359 , 4009.74358974 , 1719.0 , 1681.0 , 5.056 , 0.0 , 0.0 , 0.0 , 0.0 , 

15.0 , 4510.76923077 , 3971.28205128 , 4324.61538462 , 4389.23076923 , 4205.12820513 , 4026.15384615 , 4186.15384615 , 4153.33333333 , 4264.1025641 , 4527.17948718 , 4357.94871795 , 3866.15384615 , 4374.35897436 , 4009.23076923 , 1719.0 , 1680.0 , 5.064 , 0.0 , 0.0 , 0.0 , 0.0 , 

16.0 , 4521.53846154 , 3983.07692308 , 4330.25641026 , 4392.30769231 , 4201.53846154 , 4024.1025641 , 4187.17948718 , 4147.69230769 , 4265.64102564 , 4528.71794872 , 4358.46153846 , 3856.92307692 , 4373.33333333 , 4010.76923077 , 1720.0 , 1678.0 , 5.071 , 0.0 , 0.0 , 0.0 , 0.0 , 

17.0 , 4525.12820513 , 3982.05128205 , 4327.69230769 , 4393.33333333 , 4200.0 , 4024.1025641 , 4187.69230769 , 4143.58974359 , 4262.05128205 , 4524.61538462 , 4356.41025641 , 3857.43589744 , 4374.87179487 , 4013.33333333 , 1720.0 , 1679.0 , 5.079 , 0.0 , 0.0 , 0.0 , 0.0 , 

18.0 , 4516.41025641 , 3970.76923077 , 4323.58974359 , 4393.33333333 , 4213.33333333 , 4025.12820513 , 4188.20512821 , 4149.23076923 , 4262.56410256 , 4523.07692308 , 4355.8974359 , 3870.76923077 , 4375.8974359 , 4012.30769231 , 1721.0 , 1681.0 , 5.087 , 0.0 , 0.0 , 0.0 , 0.0 , 

19.0 , 4503.58974359 , 3960.0 , 4330.76923077 , 4394.87179487 , 4236.92307692 , 4032.82051282 , 4193.33333333 , 4153.33333333 , 4268.20512821 , 4526.15384615 , 4352.30769231 , 3868.20512821 , 4374.35897436 , 4010.25641026 , 1721.0 , 1684.0 , 5.094 , 0.0 , 0.0 , 0.0 , 0.0 , 

20.0 , 4491.28205128 , 3952.82051282 , 4335.8974359 , 4392.82051282 , 4237.43589744 , 4037.43589744 , 4198.46153846 , 4156.92307692 , 4269.23076923 , 4526.66666667 , 4347.69230769 , 3864.1025641 , 4373.84615385 , 4013.84615385 , 1723.0 , 1687.0 , 5.103 , 0.0 , 0.0 , 0.0 , 0.0 , 

21.0 , 4492.82051282 , 3955.38461538 , 4332.30769231 , 4389.74358974 , 4214.87179487 , 4033.84615385 , 4196.92307692 , 4161.53846154 , 4266.15384615 , 4524.61538462 , 4345.64102564 , 3871.28205128 , 4374.87179487 , 4015.38461538 , 1723.0 , 1690.0 , 5.111 , 0.0 , 0.0 , 0.0 , 0.0 , 

22.0 , 4499.48717949 , 3964.1025641 , 4331.28205128 , 4392.82051282 , 4204.61538462 , 4032.82051282 , 4192.30769231 , 4157.43589744 , 4264.61538462 , 4524.1025641 , 4348.20512821 , 3869.74358974 , 4374.87179487 , 4013.84615385 , 1724.0 , 1693.0 , 5.118 , 0.0 , 0.0 , 0.0 , 0.0 , 

23.0 , 4495.8974359 , 3964.61538462 , 4341.02564103 , 4398.97435897 , 4211.79487179 , 4035.38461538 , 4191.79487179 , 4150.76923077 , 4264.61538462 , 4525.12820513 , 4353.33333333 , 3857.94871795 , 4373.84615385 , 4011.28205128 , 1723.0 , 1696.0 , 5.126 , 0.0 , 0.0 , 0.0 , 0.0 , 

24.0 , 4495.8974359 , 3965.12820513 , 4340.51282051 , 4401.02564103 , 4214.35897436 , 4032.30769231 , 4191.28205128 , 4148.20512821 , 4265.12820513 , 4525.12820513 , 4356.92307692 , 3850.76923077 , 4373.84615385 , 4010.25641026 , 1721.0 , 1698.0 , 5.134 , 0.0 , 0.0 , 0.0 , 0.0 , 

25.0 , 4503.07692308 , 3969.23076923 , 4334.87179487 , 4401.53846154 , 4209.74358974 , 4026.15384615 , 4191.28205128 , 4147.17948718 , 4264.61538462 , 4525.64102564 , 4358.46153846 , 3860.0 , 4373.33333333 , 4014.35897436 , 1719.0 , 1695.0 , 5.142 , 0.0 , 0.0 , 0.0 , 0.0 , 

26.0 , 4506.15384615 , 3969.74358974 , 4331.79487179 , 4397.94871795 , 4210.76923077 , 4029.74358974 , 4190.76923077 , 4147.17948718 , 4264.1025641 , 4525.64102564 , 4358.46153846 , 3865.12820513 , 4374.35897436 , 4015.38461538 , 1718.0 , 1694.0 , 5.15 , 0.0 , 0.0 , 0.0 , 0.0 , 

27.0 , 4505.12820513 , 3962.56410256 , 4334.35897436 , 4391.79487179 , 4212.30769231 , 4031.28205128 , 4190.25641026 , 4151.79487179 , 4263.07692308 , 4525.12820513 , 4357.94871795 , 3867.17948718 , 4375.38461538 , 4010.76923077 , 1719.0 , 1689.0 , 5.157 , 0.0 , 0.0 , 0.0 , 0.0 , 

28.0 , 4508.71794872 , 3968.20512821 , 4333.33333333 , 4392.30769231 , 4215.38461538 , 4034.87179487 , 4190.76923077 , 4150.25641026 , 4263.58974359 , 4526.15384615 , 4356.41025641 , 3858.97435897 , 4375.8974359 , 4009.23076923 , 1718.0 , 1685.0 , 5.164 , 0.0 , 0.0 , 0.0 , 0.0 , 

29.0 , 4504.61538462 , 3967.69230769 , 4337.43589744 , 4397.94871795 , 4217.43589744 , 4036.41025641 , 4194.87179487 , 4147.17948718 , 4265.12820513 , 4525.12820513 , 4356.92307692 , 3857.43589744 , 4374.87179487 , 4014.87179487 , 1719.0 , 1679.0 , 5.172 , 0.0 , 0.0 , 0.0 , 0.0 , 

30.0 , 4505.64102564 , 3964.1025641 , 4336.92307692 , 4398.97435897 , 4217.94871795 , 4033.84615385 , 4195.8974359 , 4147.17948718 , 4266.15384615 , 4524.1025641 , 4357.43589744 , 3863.58974359 , 4373.33333333 , 4013.33333333 , 1718.0 , 1675.0 , 5.181 , 0.0 , 0.0 , 0.0 , 0.0 , 

31.0 , 4512.82051282 , 3962.56410256 , 4329.23076923 , 4392.82051282 , 4215.38461538 , 4027.17948718 , 4193.84615385 , 4151.28205128 , 4265.64102564 , 4525.64102564 , 4358.46153846 , 3875.38461538 , 4373.33333333 , 4010.25641026 , 1719.0 , 1674.0 , 5.188 , 0.0 , 0.0 , 0.0 , 0.0 , 

32.0 , 4515.38461538 , 3968.20512821 , 4321.53846154 , 4388.20512821 , 4214.35897436 , 4028.20512821 , 4192.30769231 , 4152.82051282 , 4265.64102564 , 4525.12820513 , 4359.48717949 , 3874.35897436 , 4373.84615385 , 4011.28205128 , 1720.0 , 1674.0 , 5.197 , 0.0 , 0.0 , 0.0 , 0.0 , 

33.0 , 4513.33333333 , 3968.71794872 , 4326.15384615 , 4388.20512821 , 4212.30769231 , 4028.71794872 , 4193.84615385 , 4151.28205128 , 4265.12820513 , 4523.07692308 , 4357.94871795 , 3867.69230769 , 4373.84615385 , 4013.33333333 , 1721.0 , 1676.0 , 5.204 , 0.0 , 0.0 , 0.0 , 0.0 , 

34.0 , 4515.38461538 , 3970.25641026 , 4330.76923077 , 4388.71794872 , 4210.76923077 , 4028.71794872 , 4191.28205128 , 4149.74358974 , 4263.58974359 , 4525.64102564 , 4355.8974359 , 3861.53846154 , 4376.41025641 , 4010.76923077 , 1723.0 , 1678.0 , 5.212 , 0.0 , 0.0 , 0.0 , 0.0 , 

35.0 , 4512.30769231 , 3970.25641026 , 4331.79487179 , 4391.28205128 , 4208.20512821 , 4027.69230769 , 4189.23076923 , 4150.76923077 , 4264.1025641 , 4528.71794872 , 4356.41025641 , 3861.53846154 , 4375.8974359 , 4009.23076923 , 1723.0 , 1682.0 , 5.22 , 0.0 , 0.0 , 0.0 , 0.0 , 

36.0 , 4508.71794872 , 3970.25641026 , 4329.74358974 , 4394.35897436 , 4207.17948718 , 4031.28205128 , 4190.76923077 , 4151.28205128 , 4265.12820513 , 4525.12820513 , 4354.87179487 , 3861.02564103 , 4372.30769231 , 4011.79487179 , 1725.0 , 1687.0 , 5.228 , 0.0 , 0.0 , 0.0 , 0.0 , 

37.0 , 4507.69230769 , 3969.23076923 , 4326.66666667 , 4394.35897436 , 4210.25641026 , 4033.84615385 , 4189.23076923 , 4152.30769231 , 4264.61538462 , 4523.07692308 , 4351.79487179 , 3860.0 , 4374.87179487 , 4010.76923077 , 1726.0 , 1689.0 , 5.235 , 0.0 , 0.0 , 0.0 , 0.0 , 

38.0 , 4506.15384615 , 3964.61538462 , 4329.74358974 , 4390.76923077 , 4211.28205128 , 4028.71794872 , 4188.71794872 , 4153.84615385 , 4264.61538462 , 4526.66666667 , 4353.33333333 , 3860.0 , 4377.94871795 , 4007.69230769 , 1725.0 , 1690.0 , 5.244 , 0.0 , 0.0 , 0.0 , 0.0 , 

39.0 , 4508.20512821 , 3970.76923077 , 4335.8974359 , 4390.76923077 , 4213.33333333 , 4022.56410256 , 4191.28205128 , 4150.76923077 , 4267.17948718 , 4527.17948718 , 4357.94871795 , 3860.51282051 , 4375.38461538 , 4012.30769231 , 1725.0 , 1690.0 , 5.251 , 0.0 , 0.0 , 0.0 , 0.0 , 

40.0 , 4507.69230769 , 3980.51282051 , 4340.0 , 4395.8974359 , 4216.92307692 , 4024.61538462 , 4191.28205128 , 4147.17948718 , 4268.20512821 , 4525.12820513 , 4360.51282051 , 3862.56410256 , 4373.33333333 , 4015.38461538 , 1722.0 , 1689.0 , 5.259 , 0.0 , 0.0 , 0.0 , 0.0 , 

41.0 , 4497.94871795 , 3973.33333333 , 4337.94871795 , 4400.0 , 4216.41025641 , 4030.76923077 , 4187.17948718 , 4149.74358974 , 4265.64102564 , 4525.64102564 , 4358.46153846 , 3856.92307692 , 4375.8974359 , 4008.20512821 , 1720.0 , 1687.0 , 5.267 , 0.0 , 0.0 , 0.0 , 0.0 , 

42.0 , 4493.84615385 , 3956.41025641 , 4338.46153846 , 4401.53846154 , 4214.87179487 , 4030.25641026 , 4190.25641026 , 4154.35897436 , 4264.61538462 , 4526.66666667 , 4356.92307692 , 3860.51282051 , 4375.8974359 , 4005.64102564 , 1717.0 , 1684.0 , 5.275 , 0.0 , 0.0 , 0.0 , 0.0 , 

43.0 , 4509.74358974 , 3967.69230769 , 4334.87179487 , 4395.8974359 , 4218.97435897 , 4030.76923077 , 4193.33333333 , 4150.76923077 , 4265.64102564 , 4525.64102564 , 4357.94871795 , 3862.05128205 , 4374.87179487 , 4012.82051282 , 1718.0 , 1682.0 , 5.282 , 0.0 , 0.0 , 0.0 , 0.0 , 

44.0 , 4516.92307692 , 3975.38461538 , 4334.35897436 , 4390.25641026 , 4219.48717949 , 4029.74358974 , 4195.8974359 , 4144.1025641 , 4265.64102564 , 4525.64102564 , 4358.46153846 , 3867.69230769 , 4374.87179487 , 4015.38461538 , 1719.0 , 1679.0 , 5.289 , 0.0 , 0.0 , 0.0 , 0.0 , 

45.0 , 4509.23076923 , 3965.64102564 , 4331.79487179 , 4393.33333333 , 4220.51282051 , 4033.84615385 , 4196.92307692 , 4144.1025641 , 4265.12820513 , 4526.15384615 , 4355.8974359 , 3867.69230769 , 4372.82051282 , 4010.25641026 , 1719.0 , 1680.0 , 5.298 , 0.0 , 0.0 , 0.0 , 0.0 , 

46.0 , 4499.48717949 , 3958.46153846 , 4332.82051282 , 4400.51282051 , 4221.02564103 , 4034.35897436 , 4195.8974359 , 4150.76923077 , 4265.12820513 , 4526.15384615 , 4356.41025641 , 3865.64102564 , 4372.30769231 , 4011.28205128 , 1722.0 , 1679.0 , 5.306 , 0.0 , 0.0 , 0.0 , 0.0 , 

47.0 , 4488.71794872 , 3960.0 , 4338.97435897 , 4405.64102564 , 4219.48717949 , 4033.33333333 , 4193.84615385 , 4154.87179487 , 4265.12820513 , 4526.66666667 , 4358.46153846 , 3860.51282051 , 4373.84615385 , 4013.84615385 , 1722.0 , 1681.0 , 5.313 , 0.0 , 0.0 , 0.0 , 0.0 , 

48.0 , 4476.92307692 , 3953.33333333 , 4347.17948718 , 4410.25641026 , 4220.0 , 4030.76923077 , 4193.33333333 , 4152.30769231 , 4265.12820513 , 4527.17948718 , 4357.94871795 , 3862.05128205 , 4373.33333333 , 4011.28205128 , 1722.0 , 1684.0 , 5.321 , 0.0 , 0.0 , 0.0 , 0.0 , 

49.0 , 4491.28205128 , 3959.48717949 , 4338.97435897 , 4406.15384615 , 4220.51282051 , 4032.82051282 , 4192.82051282 , 4145.64102564 , 4265.12820513 , 4524.61538462 , 4358.46153846 , 3863.58974359 , 4373.84615385 , 4007.69230769 , 1721.0 , 1685.0 , 5.329 , 0.0 , 0.0 , 0.0 , 0.0 , 

50.0 , 4518.46153846 , 3969.23076923 , 4325.64102564 , 4389.74358974 , 4209.74358974 , 4028.71794872 , 4190.76923077 , 4146.66666667 , 4264.1025641 , 4523.07692308 , 4359.48717949 , 3870.25641026 , 4375.8974359 , 4011.28205128 , 1723.0 , 1686.0 , 5.337 , 0.0 , 0.0 , 0.0 , 0.0 , 

51.0 , 4525.64102564 , 3972.30769231 , 4324.61538462 , 4382.05128205 , 4201.02564103 , 4023.58974359 , 4188.20512821 , 4153.33333333 , 4263.07692308 , 4526.15384615 , 4357.43589744 , 3871.79487179 , 4375.38461538 , 4013.84615385 , 1723.0 , 1688.0 , 5.344 , 0.0 , 0.0 , 0.0 , 0.0 , 

52.0 , 4520.0 , 3976.41025641 , 4330.25641026 , 4386.66666667 , 4204.61538462 , 4022.56410256 , 4186.66666667 , 4154.87179487 , 4264.1025641 , 4528.20512821 , 4356.92307692 , 3861.53846154 , 4375.38461538 , 4010.76923077 , 1722.0 , 1691.0 , 5.353 , 0.0 , 0.0 , 0.0 , 0.0 , 

53.0 , 4504.61538462 , 3973.33333333 , 4338.46153846 , 4398.97435897 , 4210.25641026 , 4024.1025641 , 4188.71794872 , 4153.84615385 , 4266.15384615 , 4525.64102564 , 4358.46153846 , 3857.94871795 , 4375.8974359 , 4009.74358974 , 1720.0 , 1692.0 , 5.361 , 0.0 , 0.0 , 0.0 , 0.0 , 

54.0 , 4481.02564103 , 3955.38461538 , 4347.17948718 , 4417.43589744 , 4213.84615385 , 4023.58974359 , 4191.28205128 , 4152.30769231 , 4265.64102564 , 4526.66666667 , 4357.94871795 , 3861.53846154 , 4375.38461538 , 4013.84615385 , 1719.0 , 1694.0 , 5.369 , 0.0 , 0.0 , 0.0 , 0.0 , 

55.0 , 4480.51282051 , 3951.79487179 , 4348.71794872 , 4419.48717949 , 4218.97435897 , 4026.15384615 , 4192.82051282 , 4148.20512821 , 4264.1025641 , 4527.17948718 , 4358.46153846 , 3859.48717949 , 4374.87179487 , 4013.84615385 , 1720.0 , 1691.0 , 5.376 , 0.0 , 0.0 , 0.0 , 0.0 , 

56.0 , 4500.0 , 3962.56410256 , 4334.35897436 , 4395.8974359 , 4224.1025641 , 4042.05128205 , 4196.41025641 , 4145.12820513 , 4265.12820513 , 4524.1025641 , 4360.0 , 3858.46153846 , 4374.87179487 , 4007.69230769 , 1721.0 , 1691.0 , 5.384 , 0.0 , 0.0 , 0.0 , 0.0 , 

57.0 , 4506.66666667 , 3958.97435897 , 4325.64102564 , 4380.51282051 , 4221.02564103 , 4047.17948718 , 4200.0 , 4147.69230769 , 4265.64102564 , 4525.12820513 , 4358.97435897 , 3870.25641026 , 4374.87179487 , 4006.66666667 , 1725.0 , 1687.0 , 5.392 , 0.0 , 0.0 , 0.0 , 0.0 , 

58.0 , 4505.64102564 , 3960.51282051 , 4327.17948718 , 4384.61538462 , 4218.97435897 , 4035.8974359 , 4194.35897436 , 4154.35897436 , 4264.61538462 , 4527.17948718 , 4357.43589744 , 3867.69230769 , 4375.8974359 , 4009.23076923 , 1721.0 , 1685.0 , 5.4 , 0.0 , 0.0 , 0.0 , 0.0 , 

59.0 , 4510.76923077 , 3971.28205128 , 4334.35897436 , 4390.76923077 , 4217.94871795 , 4026.15384615 , 4191.28205128 , 4160.0 , 4264.61538462 , 4526.15384615 , 4357.94871795 , 3860.51282051 , 4374.87179487 , 4009.23076923 , 1722.0 , 1685.0 , 5.407 , 0.0 , 0.0 , 0.0 , 0.0 , 

60.0 , 4515.38461538 , 3976.41025641 , 4333.33333333 , 4391.28205128 , 4214.35897436 , 4033.33333333 , 4191.79487179 , 4152.30769231 , 4265.64102564 , 4526.15384615 , 4357.94871795 , 3854.35897436 , 4375.38461538 , 4009.23076923 , 1722.0 , 1682.0 , 5.415 , 0.0 , 0.0 , 0.0 , 0.0 , 

61.0 , 4513.84615385 , 3968.20512821 , 4331.79487179 , 4392.30769231 , 4210.76923077 , 4033.84615385 , 4191.28205128 , 4142.56410256 , 4264.61538462 , 4525.64102564 , 4356.41025641 , 3860.51282051 , 4377.43589744 , 4012.30769231 , 1724.0 , 1683.0 , 5.423 , 0.0 , 0.0 , 0.0 , 0.0 , 

62.0 , 4518.97435897 , 3968.71794872 , 4327.69230769 , 4388.20512821 , 4212.30769231 , 4033.33333333 , 4189.74358974 , 4145.12820513 , 4263.07692308 , 4523.07692308 , 4355.38461538 , 3862.56410256 , 4376.92307692 , 4011.28205128 , 1723.0 , 1681.0 , 5.431 , 0.0 , 0.0 , 0.0 , 0.0 , 

63.0 , 4529.23076923 , 3974.87179487 , 4324.61538462 , 4379.48717949 , 4206.66666667 , 4034.87179487 , 4191.79487179 , 4153.84615385 , 4263.07692308 , 4523.58974359 , 4356.92307692 , 3861.02564103 , 4374.35897436 , 4008.20512821 , 1721.0 , 1682.0 , 5.438 , 0.0 , 0.0 , 0.0 , 0.0 , 

64.0 , 4535.8974359 , 3984.1025641 , 4320.0 , 4375.8974359 , 4201.53846154 , 4031.28205128 , 4190.25641026 , 4152.82051282 , 4265.12820513 , 4527.17948718 , 4357.43589744 , 3858.46153846 , 4375.38461538 , 4007.69230769 , 1721.0 , 1681.0 , 5.447 , 0.0 , 0.0 , 0.0 , 0.0 , 

65.0 , 4526.66666667 , 3980.0 , 4325.12820513 , 4383.58974359 , 4208.71794872 , 4023.58974359 , 4189.74358974 , 4147.17948718 , 4266.15384615 , 4527.17948718 , 4360.0 , 3865.12820513 , 4375.38461538 , 4010.76923077 , 1723.0 , 1683.0 , 5.455 , 0.0 , 0.0 , 0.0 , 0.0 , 

66.0 , 4512.30769231 , 3969.74358974 , 4335.38461538 , 4390.76923077 , 4222.56410256 , 4028.20512821 , 4193.84615385 , 4147.17948718 , 4264.1025641 , 4523.58974359 , 4360.51282051 , 3864.61538462 , 4374.35897436 , 4013.33333333 , 1724.0 , 1684.0 , 5.462 , 0.0 , 0.0 , 0.0 , 0.0 , 

67.0 , 4504.61538462 , 3965.12820513 , 4336.92307692 , 4391.28205128 , 4227.17948718 , 4034.35897436 , 4195.38461538 , 4152.82051282 , 4263.58974359 , 4524.1025641 , 4357.43589744 , 3859.48717949 , 4374.87179487 , 4011.79487179 , 1722.0 , 1687.0 , 5.469 , 0.0 , 0.0 , 0.0 , 0.0 , 

68.0 , 4504.1025641 , 3966.15384615 , 4330.76923077 , 4392.82051282 , 4220.51282051 , 4033.84615385 , 4195.38461538 , 4154.35897436 , 4266.66666667 , 4526.15384615 , 4357.43589744 , 3861.02564103 , 4374.87179487 , 4010.25641026 , 1723.0 , 1688.0 , 5.478 , 0.0 , 0.0 , 0.0 , 0.0 , 

69.0 , 4502.05128205 , 3963.07692308 , 4327.17948718 , 4395.38461538 , 4211.79487179 , 4032.30769231 , 4193.84615385 , 4151.79487179 , 4264.1025641 , 4524.1025641 , 4358.97435897 , 3863.58974359 , 4373.84615385 , 4010.25641026 , 1722.0 , 1689.0 , 5.485 , 0.0 , 0.0 , 0.0 , 0.0 , 

70.0 , 4505.12820513 , 3966.15384615 , 4331.28205128 , 4392.30769231 , 4210.76923077 , 4032.82051282 , 4191.28205128 , 4152.82051282 , 4261.53846154 , 4525.12820513 , 4357.94871795 , 3860.0 , 4373.84615385 , 4008.20512821 , 1724.0 , 1690.0 , 5.493 , 0.0 , 0.0 , 0.0 , 0.0 , 

71.0 , 4513.33333333 , 3970.76923077 , 4333.84615385 , 4388.71794872 , 4214.35897436 , 4027.17948718 , 4189.23076923 , 4154.35897436 , 4266.66666667 , 4526.15384615 , 4358.46153846 , 3862.05128205 , 4373.33333333 , 4010.25641026 , 1724.0 , 1690.0 , 5.501 , 0.0 , 0.0 , 0.0 , 0.0 , 

72.0 , 4512.30769231 , 3966.15384615 , 4333.84615385 , 4390.25641026 , 4213.84615385 , 4022.05128205 , 4193.33333333 , 4153.84615385 , 4268.71794872 , 4524.1025641 , 4361.02564103 , 3872.82051282 , 4373.33333333 , 4013.33333333 , 1722.0 , 1691.0 , 5.509 , 0.0 , 0.0 , 0.0 , 0.0 , 

73.0 , 4509.74358974 , 3973.33333333 , 4331.28205128 , 4392.82051282 , 4214.87179487 , 4025.64102564 , 4195.8974359 , 4149.74358974 , 4265.64102564 , 4524.1025641 , 4358.97435897 , 3870.76923077 , 4375.8974359 , 4013.84615385 , 1721.0 , 1690.0 , 5.517 , 0.0 , 0.0 , 0.0 , 0.0 , 

74.0 , 4506.15384615 , 3977.43589744 , 4335.38461538 , 4394.87179487 , 4217.43589744 , 4027.17948718 , 4193.84615385 , 4149.74358974 , 4266.15384615 , 4524.1025641 , 4358.46153846 , 3865.64102564 , 4375.38461538 , 4012.82051282 , 1720.0 , 1690.0 , 5.525 , 0.0 , 0.0 , 0.0 , 0.0 , 

75.0 , 4504.1025641 , 3969.23076923 , 4339.48717949 , 4399.48717949 , 4218.46153846 , 4029.23076923 , 4191.79487179 , 4150.25641026 , 4266.15384615 , 4524.1025641 , 4359.48717949 , 3861.02564103 , 4374.87179487 , 4011.79487179 , 1720.0 , 1689.0 , 5.533 , 0.0 , 0.0 , 0.0 , 0.0 , 

76.0 , 4507.17948718 , 3964.1025641 , 4340.0 , 4401.02564103 , 4215.38461538 , 4031.28205128 , 4193.33333333 , 4151.28205128 , 4263.07692308 , 4526.15384615 , 4357.94871795 , 3863.07692308 , 4374.35897436 , 4012.82051282 , 1720.0 , 1690.0 , 5.541 , 0.0 , 0.0 , 0.0 , 0.0 , 

77.0 , 4513.84615385 , 3974.35897436 , 4333.84615385 , 4394.35897436 , 4217.43589744 , 4035.8974359 , 4194.35897436 , 4149.23076923 , 4263.07692308 , 4524.61538462 , 4356.92307692 , 3856.92307692 , 4373.33333333 , 4012.30769231 , 1720.0 , 1689.0 , 5.548 , 0.0 , 0.0 , 0.0 , 0.0 , 

78.0 , 4513.33333333 , 3971.28205128 , 4333.33333333 , 4387.69230769 , 4219.48717949 , 4034.35897436 , 4194.35897436 , 4149.23076923 , 4264.61538462 , 4523.58974359 , 4356.92307692 , 3858.46153846 , 4373.33333333 , 4011.28205128 , 1720.0 , 1690.0 , 5.556 , 0.0 , 0.0 , 0.0 , 0.0 , 

79.0 , 4513.33333333 , 3967.17948718 , 4329.74358974 , 4387.69230769 , 4217.43589744 , 4032.30769231 , 4193.33333333 , 4149.74358974 , 4265.12820513 , 4526.66666667 , 4356.92307692 , 3862.05128205 , 4375.8974359 , 4010.76923077 , 1722.0 , 1689.0 , 5.564 , 0.0 , 0.0 , 0.0 , 0.0 , 

80.0 , 4511.28205128 , 3968.20512821 , 4327.69230769 , 4390.76923077 , 4211.79487179 , 4026.66666667 , 4192.82051282 , 4153.33333333 , 4267.17948718 , 4526.66666667 , 4359.48717949 , 3866.66666667 , 4376.92307692 , 4011.28205128 , 1722.0 , 1690.0 , 5.572 , 0.0 , 0.0 , 0.0 , 0.0 , 

81.0 , 4510.25641026 , 3968.71794872 , 4331.28205128 , 4390.76923077 , 4210.76923077 , 4027.17948718 , 4192.82051282 , 4155.8974359 , 4266.15384615 , 4524.1025641 , 4361.02564103 , 3862.56410256 , 4375.8974359 , 4010.76923077 , 1723.0 , 1691.0 , 5.58 , 0.0 , 0.0 , 0.0 , 0.0 , 

82.0 , 4514.35897436 , 3966.15384615 , 4337.94871795 , 4390.25641026 , 4211.79487179 , 4029.23076923 , 4192.82051282 , 4151.79487179 , 4263.07692308 , 4524.1025641 , 4361.02564103 , 3863.07692308 , 4373.84615385 , 4012.30769231 , 1722.0 , 1690.0 , 5.588 , 0.0 , 0.0 , 0.0 , 0.0 , 

83.0 , 4518.46153846 , 3972.30769231 , 4332.82051282 , 4391.79487179 , 4213.84615385 , 4031.28205128 , 4191.28205128 , 4148.71794872 , 4263.58974359 , 4524.1025641 , 4359.48717949 , 3865.12820513 , 4373.33333333 , 4012.82051282 , 1721.0 , 1692.0 , 5.594 , 0.0 , 0.0 , 0.0 , 0.0 , 

84.0 , 4514.35897436 , 3974.87179487 , 4327.17948718 , 4392.82051282 , 4214.87179487 , 4031.79487179 , 4191.28205128 , 4152.82051282 , 4265.64102564 , 4524.1025641 , 4356.92307692 , 3863.07692308 , 4373.84615385 , 4009.74358974 , 1722.0 , 1690.0 , 5.603 , 0.0 , 0.0 , 0.0 , 0.0 , 

85.0 , 4510.76923077 , 3971.79487179 , 4331.79487179 , 4390.76923077 , 4213.84615385 , 4032.30769231 , 4192.82051282 , 4154.35897436 , 4265.12820513 , 4526.15384615 , 4358.97435897 , 3861.02564103 , 4372.30769231 , 4008.71794872 , 1719.0 , 1690.0 , 5.611 , 0.0 , 0.0 , 0.0 , 0.0 , 

86.0 , 4511.79487179 , 3972.82051282 , 4335.38461538 , 4391.28205128 , 4212.82051282 , 4030.25641026 , 4191.28205128 , 4150.76923077 , 4263.58974359 , 4525.64102564 , 4361.02564103 , 3860.0 , 4372.30769231 , 4010.76923077 , 1719.0 , 1689.0 , 5.618 , 0.0 , 0.0 , 0.0 , 0.0 , 

87.0 , 4514.87179487 , 3975.38461538 , 4335.8974359 , 4394.87179487 , 4216.92307692 , 4029.74358974 , 4190.25641026 , 4149.23076923 , 4265.12820513 , 4525.12820513 , 4358.97435897 , 3861.02564103 , 4374.35897436 , 4012.82051282 , 1718.0 , 1688.0 , 5.627 , 0.0 , 0.0 , 0.0 , 0.0 , 

88.0 , 4513.33333333 , 3973.84615385 , 4332.30769231 , 4395.8974359 , 4218.97435897 , 4032.30769231 , 4190.76923077 , 4151.28205128 , 4265.12820513 , 4526.15384615 , 4358.97435897 , 3862.05128205 , 4375.38461538 , 4011.79487179 , 1719.0 , 1688.0 , 5.633 , 0.0 , 0.0 , 0.0 , 0.0 , 

89.0 , 4506.15384615 , 3968.20512821 , 4333.33333333 , 4393.84615385 , 4214.35897436 , 4031.28205128 , 4193.84615385 , 4152.30769231 , 4263.58974359 , 4526.15384615 , 4361.02564103 , 3866.66666667 , 4373.33333333 , 4009.74358974 , 1718.0 , 1688.0 , 5.642 , 0.0 , 0.0 , 0.0 , 0.0 , 

90.0 , 4507.69230769 , 3968.71794872 , 4333.84615385 , 4392.30769231 , 4213.84615385 , 4032.82051282 , 4193.84615385 , 4151.79487179 , 4263.07692308 , 4525.64102564 , 4357.94871795 , 3863.58974359 , 4372.82051282 , 4010.76923077 , 1719.0 , 1687.0 , 5.65 , 0.0 , 0.0 , 0.0 , 0.0 , 

91.0 , 4513.33333333 , 3969.74358974 , 4335.38461538 , 4391.28205128 , 4215.38461538 , 4032.82051282 , 4191.28205128 , 4150.76923077 , 4263.07692308 , 4526.66666667 , 4356.92307692 , 3860.51282051 , 4374.35897436 , 4011.79487179 , 1720.0 , 1687.0 , 5.658 , 0.0 , 0.0 , 0.0 , 0.0 , 

92.0 , 4516.41025641 , 3973.84615385 , 4331.28205128 , 4388.71794872 , 4215.38461538 , 4033.33333333 , 4188.20512821 , 4147.69230769 , 4263.07692308 , 4524.61538462 , 4358.46153846 , 3858.97435897 , 4375.8974359 , 4012.82051282 , 1720.0 , 1686.0 , 5.665 , 0.0 , 0.0 , 0.0 , 0.0 , 

93.0 , 4512.30769231 , 3968.71794872 , 4329.23076923 , 4389.23076923 , 4211.79487179 , 4030.76923077 , 4190.76923077 , 4151.28205128 , 4263.58974359 , 4523.58974359 , 4358.46153846 , 3867.17948718 , 4373.84615385 , 4014.87179487 , 1720.0 , 1687.0 , 5.674 , 0.0 , 0.0 , 0.0 , 0.0 , 

94.0 , 4511.79487179 , 3969.74358974 , 4330.25641026 , 4390.76923077 , 4213.33333333 , 4033.33333333 , 4192.82051282 , 4153.84615385 , 4265.12820513 , 4526.15384615 , 4358.97435897 , 3861.02564103 , 4371.79487179 , 4012.82051282 , 1722.0 , 1686.0 , 5.681 , 0.0 , 0.0 , 0.0 , 0.0 , 

95.0 , 4513.33333333 , 3976.92307692 , 4336.41025641 , 4389.23076923 , 4215.8974359 , 4032.30769231 , 4191.28205128 , 4153.33333333 , 4263.58974359 , 4527.17948718 , 4360.0 , 3850.25641026 , 4373.33333333 , 4013.84615385 , 1721.0 , 1687.0 , 5.689 , 0.0 , 0.0 , 0.0 , 0.0 , 

96.0 , 4516.41025641 , 3979.48717949 , 4334.35897436 , 4388.20512821 , 4216.41025641 , 4033.33333333 , 4188.71794872 , 4150.76923077 , 4263.07692308 , 4526.15384615 , 4357.94871795 , 3849.74358974 , 4373.33333333 , 4014.87179487 , 1721.0 , 1687.0 , 5.697 , 0.0 , 0.0 , 0.0 , 0.0 , 

97.0 , 4518.97435897 , 3970.25641026 , 4328.20512821 , 4385.64102564 , 4213.33333333 , 4031.79487179 , 4191.28205128 , 4150.76923077 , 4263.58974359 , 4525.12820513 , 4357.94871795 , 3858.97435897 , 4372.82051282 , 4009.74358974 , 1721.0 , 1688.0 , 5.705 , 0.0 , 0.0 , 0.0 , 0.0 , 

98.0 , 4525.12820513 , 3971.79487179 , 4323.07692308 , 4379.48717949 , 4214.35897436 , 4029.74358974 , 4193.33333333 , 4150.76923077 , 4263.58974359 , 4525.64102564 , 4358.46153846 , 3860.0 , 4375.8974359 , 4007.17948718 , 1721.0 , 1687.0 , 5.713 , 0.0 , 0.0 , 0.0 , 0.0 , 

99.0 , 4531.28205128 , 3976.41025641 , 4321.53846154 , 4376.41025641 , 4213.84615385 , 4027.17948718 , 4191.79487179 , 4152.30769231 , 4264.61538462 , 4526.15384615 , 4358.46153846 , 3862.56410256 , 4376.41025641 , 4008.71794872 , 1720.0 , 1687.0 , 5.72 , 0.0 , 0.0 , 0.0 , 0.0 , 

100.0 , 4533.84615385 , 3976.92307692 , 4320.51282051 , 4376.92307692 , 4212.30769231 , 4029.23076923 , 4191.79487179 , 4152.30769231 , 4265.64102564 , 4524.61538462 , 4360.51282051 , 3866.15384615 , 4372.82051282 , 4009.74358974 , 1721.0 , 1686.0 , 5.728 , 0.0 , 0.0 , 0.0 , 0.0 , 

101.0 , 4529.23076923 , 3976.41025641 , 4324.1025641 , 4380.51282051 , 4215.8974359 , 4029.23076923 , 4193.84615385 , 4149.23076923 , 4264.61538462 , 4523.58974359 , 4361.02564103 , 3865.64102564 , 4372.82051282 , 4012.30769231 , 1721.0 , 1685.0 , 5.736 , 0.0 , 0.0 , 0.0 , 0.0 , 

102.0 , 4517.94871795 , 3973.84615385 , 4330.25641026 , 4388.20512821 , 4219.48717949 , 4029.23076923 , 4193.33333333 , 4149.74358974 , 4264.1025641 , 4526.15384615 , 4358.46153846 , 3863.07692308 , 4375.38461538 , 4013.33333333 , 1721.0 , 1687.0 , 5.744 , 0.0 , 0.0 , 0.0 , 0.0 , 

103.0 , 4508.20512821 , 3967.69230769 , 4331.79487179 , 4393.33333333 , 4217.94871795 , 4032.30769231 , 4191.28205128 , 4152.82051282 , 4265.12820513 , 4527.69230769 , 4357.43589744 , 3861.53846154 , 4374.87179487 , 4011.28205128 , 1722.0 , 1684.0 , 5.752 , 0.0 , 0.0 , 0.0 , 0.0 , 

104.0 , 4506.15384615 , 3964.1025641 , 4336.41025641 , 4394.35897436 , 4213.84615385 , 4035.38461538 , 4192.82051282 , 4154.87179487 , 4263.58974359 , 4524.1025641 , 4357.43589744 , 3862.56410256 , 4374.87179487 , 4010.76923077 , 1721.0 , 1686.0 , 5.76 , 0.0 , 0.0 , 0.0 , 0.0 , 

105.0 , 4511.28205128 , 3967.69230769 , 4336.41025641 , 4393.33333333 , 4214.87179487 , 4036.92307692 , 4191.28205128 , 4150.25641026 , 4263.07692308 , 4523.58974359 , 4356.92307692 , 3861.02564103 , 4375.8974359 , 4011.28205128 , 1722.0 , 1685.0 , 5.767 , 0.0 , 0.0 , 0.0 , 0.0 , 

106.0 , 4513.84615385 , 3969.23076923 , 4336.41025641 , 4391.79487179 , 4216.92307692 , 4032.30769231 , 4190.25641026 , 4145.64102564 , 4265.64102564 , 4526.66666667 , 4357.94871795 , 3862.05128205 , 4374.87179487 , 4012.82051282 , 1722.0 , 1686.0 , 5.775 , 0.0 , 0.0 , 0.0 , 0.0 , 

107.0 , 4511.28205128 , 3970.76923077 , 4334.87179487 , 4389.23076923 , 4216.41025641 , 4031.28205128 , 4191.79487179 , 4147.69230769 , 4266.66666667 , 4526.66666667 , 4358.46153846 , 3859.48717949 , 4375.38461538 , 4013.33333333 , 1723.0 , 1685.0 , 5.783 , 0.0 , 0.0 , 0.0 , 0.0 , 

108.0 , 4508.20512821 , 3966.66666667 , 4336.41025641 , 4390.25641026 , 4213.84615385 , 4031.79487179 , 4193.33333333 , 4154.35897436 , 4265.12820513 , 4525.12820513 , 4357.43589744 , 3862.05128205 , 4375.38461538 , 4009.23076923 , 1723.0 , 1685.0 , 5.791 , 0.0 , 0.0 , 0.0 , 0.0 , 

109.0 , 4511.79487179 , 3968.71794872 , 4333.33333333 , 4392.30769231 , 4214.87179487 , 4033.33333333 , 4191.79487179 , 4151.79487179 , 4264.1025641 , 4525.64102564 , 4356.92307692 , 3864.1025641 , 4374.35897436 , 4009.23076923 , 1725.0 , 1684.0 , 5.799 , 0.0 , 0.0 , 0.0 , 0.0 , 

110.0 , 4513.33333333 , 3970.76923077 , 4333.84615385 , 4391.79487179 , 4214.87179487 , 4028.71794872 , 4192.82051282 , 4146.66666667 , 4265.12820513 , 4526.15384615 , 4357.94871795 , 3867.69230769 , 4374.87179487 , 4015.38461538 , 1724.0 , 1683.0 , 5.806 , 0.0 , 0.0 , 0.0 , 0.0 , 

111.0 , 4511.79487179 , 3971.79487179 , 4332.30769231 , 4389.74358974 , 4213.84615385 , 4030.76923077 , 4192.30769231 , 4147.17948718 , 4266.66666667 , 4524.1025641 , 4357.94871795 , 3861.53846154 , 4374.87179487 , 4014.35897436 , 1723.0 , 1684.0 , 5.814 , 0.0 , 0.0 , 0.0 , 0.0 , 

112.0 , 4509.23076923 , 3968.71794872 , 4332.82051282 , 4389.74358974 , 4211.79487179 , 4031.28205128 , 4191.28205128 , 4151.28205128 , 4265.12820513 , 4523.07692308 , 4360.0 , 3863.58974359 , 4373.33333333 , 4009.74358974 , 1721.0 , 1683.0 , 5.822 , 0.0 , 0.0 , 0.0 , 0.0 , 

113.0 , 4511.79487179 , 3972.82051282 , 4334.35897436 , 4392.30769231 , 4213.84615385 , 4031.79487179 , 4193.33333333 , 4148.71794872 , 4264.1025641 , 4526.15384615 , 4361.02564103 , 3862.56410256 , 4374.35897436 , 4011.79487179 , 1721.0 , 1684.0 , 5.83 , 0.0 , 0.0 , 0.0 , 0.0 , 

114.0 , 4514.35897436 , 3973.33333333 , 4333.33333333 , 4392.30769231 , 4216.92307692 , 4033.33333333 , 4194.87179487 , 4147.17948718 , 4265.12820513 , 4526.66666667 , 4357.43589744 , 3857.43589744 , 4374.87179487 , 4013.84615385 , 1723.0 , 1683.0 , 5.838 , 0.0 , 0.0 , 0.0 , 0.0 , 

115.0 , 4515.38461538 , 3972.82051282 , 4331.28205128 , 4390.76923077 , 4219.48717949 , 4033.33333333 , 4192.82051282 , 4150.76923077 , 4265.12820513 , 4524.61538462 , 4356.92307692 , 3856.41025641 , 4372.82051282 , 4011.28205128 , 1723.0 , 1684.0 , 5.846 , 0.0 , 0.0 , 0.0 , 0.0 , 

116.0 , 4511.28205128 , 3972.82051282 , 4334.35897436 , 4391.28205128 , 4217.43589744 , 4030.76923077 , 4193.84615385 , 4151.79487179 , 4263.58974359 , 4524.61538462 , 4358.97435897 , 3858.46153846 , 4372.30769231 , 4010.76923077 , 1725.0 , 1684.0 , 5.853 , 0.0 , 0.0 , 0.0 , 0.0 , 

117.0 , 4508.71794872 , 3973.84615385 , 4335.38461538 , 4392.30769231 , 4217.94871795 , 4033.84615385 , 4193.84615385 , 4147.17948718 , 4263.07692308 , 4526.66666667 , 4357.43589744 , 3853.33333333 , 4374.35897436 , 4012.30769231 , 1723.0 , 1685.0 , 5.861 , 0.0 , 0.0 , 0.0 , 0.0 , 

118.0 , 4512.30769231 , 3970.76923077 , 4330.76923077 , 4388.71794872 , 4217.43589744 , 4033.33333333 , 4189.74358974 , 4146.66666667 , 4263.58974359 , 4526.66666667 , 4355.38461538 , 3853.84615385 , 4376.41025641 , 4012.30769231 , 1723.0 , 1688.0 , 5.869 , 0.0 , 0.0 , 0.0 , 0.0 , 

119.0 , 4513.84615385 , 3966.15384615 , 4330.76923077 , 4386.66666667 , 4214.87179487 , 4028.71794872 , 4190.25641026 , 4150.76923077 , 4264.61538462 , 4526.15384615 , 4356.92307692 , 3861.02564103 , 4375.38461538 , 4009.74358974 , 1721.0 , 1690.0 , 5.877 , 0.0 , 0.0 , 0.0 , 0.0 , 

120.0 , 4510.76923077 , 3971.79487179 , 4332.30769231 , 4388.20512821 , 4214.35897436 , 4030.76923077 , 4191.28205128 , 4150.25641026 , 4263.58974359 , 4527.17948718 , 4357.94871795 , 3860.51282051 , 4373.33333333 , 4010.76923077 , 1721.0 , 1692.0 , 5.885 , 0.0 , 0.0 , 0.0 , 0.0 , 

121.0 , 4511.79487179 , 3975.8974359 , 4333.84615385 , 4389.23076923 , 4213.33333333 , 4030.76923077 , 4191.28205128 , 4151.28205128 , 4262.56410256 , 4526.66666667 , 4360.0 , 3863.58974359 , 4374.35897436 , 4013.84615385 , 1720.0 , 1691.0 , 5.893 , 0.0 , 0.0 , 0.0 , 0.0 , 

122.0 , 4516.92307692 , 3974.35897436 , 4331.28205128 , 4390.25641026 , 4214.87179487 , 4028.71794872 , 4192.30769231 , 4152.30769231 , 4265.12820513 , 4524.1025641 , 4359.48717949 , 3866.66666667 , 4376.92307692 , 4012.82051282 , 1720.0 , 1691.0 , 5.9 , 0.0 , 0.0 , 0.0 , 0.0 , 

123.0 , 4516.41025641 , 3970.25641026 , 4330.76923077 , 4391.79487179 , 4215.8974359 , 4029.74358974 , 4195.38461538 , 4151.79487179 , 4266.66666667 , 4525.64102564 , 4356.41025641 , 3867.17948718 , 4375.8974359 , 4010.76923077 , 1720.0 , 1689.0 , 5.908 , 0.0 , 0.0 , 0.0 , 0.0 , 

124.0 , 4513.33333333 , 3971.79487179 , 4331.28205128 , 4390.76923077 , 4216.92307692 , 4031.79487179 , 4192.82051282 , 4150.25641026 , 4264.1025641 , 4528.71794872 , 4356.92307692 , 3862.56410256 , 4373.33333333 , 4010.76923077 , 1718.0 , 1690.0 , 5.916 , 0.0 , 0.0 , 0.0 , 0.0 , 

125.0 , 4509.74358974 , 3968.20512821 , 4336.92307692 , 4390.25641026 , 4217.94871795 , 4029.74358974 , 4191.79487179 , 4153.33333333 , 4263.58974359 , 4526.66666667 , 4361.02564103 , 3863.58974359 , 4374.35897436 , 4012.82051282 , 1718.0 , 1686.0 , 5.924 , 0.0 , 0.0 , 0.0 , 0.0 , 

126.0 , 4507.17948718 , 3967.17948718 , 4333.33333333 , 4393.84615385 , 4222.05128205 , 4034.87179487 , 4192.30769231 , 4156.41025641 , 4264.61538462 , 4525.64102564 , 4360.0 , 3862.56410256 , 4375.8974359 , 4011.79487179 , 1718.0 , 1685.0 , 5.931 , 0.0 , 0.0 , 0.0 , 0.0 , 

127.0 , 4504.61538462 , 3962.56410256 , 4330.76923077 , 4396.41025641 , 4220.51282051 , 4033.33333333 , 4192.82051282 , 4155.38461538 , 4264.1025641 , 4527.17948718 , 4358.97435897 , 3868.71794872 , 4373.84615385 , 4010.25641026 , 1720.0 , 1684.0 , 5.939 , 0.0 , 0.0 , 0.0 , 0.0 , 

128.0 , 4512.30769231 , 3967.69230769 , 4330.25641026 , 4390.25641026 , 4213.84615385 , 4032.82051282 , 4192.30769231 , 4148.20512821 , 4263.07692308 , 4526.15384615 , 4358.97435897 , 3865.12820513 , 4372.82051282 , 4008.71794872 , 1721.0 , 1682.0 , 5.946 , 0.0 , 0.0 , 0.0 , 0.0 , 

0.0 , 4524.1025641 , 3974.35897436 , 4331.28205128 , 4382.56410256 , 4212.30769231 , 4036.92307692 , 4192.30769231 , 4143.58974359 , 4264.1025641 , 4524.61538462 , 4358.46153846 , 3858.97435897 , 4373.84615385 , 4009.23076923 , 1722.0 , 1681.0 , 5.955 , 0.0 , 0.0 , 0.0 , 0.0 , 

1.0 , 4524.61538462 , 3975.38461538 , 4329.74358974 , 4384.1025641 , 4216.41025641 , 4038.46153846 , 4192.30769231 , 4147.69230769 , 4264.1025641 , 4525.12820513 , 4355.8974359 , 3857.43589744 , 4374.87179487 , 4009.23076923 , 1723.0 , 1680.0 , 5.963 , 0.0 , 0.0 , 0.0 , 0.0 , 

2.0 , 4512.82051282 , 3968.71794872 , 4331.79487179 , 4391.28205128 , 4211.79487179 , 4031.28205128 , 4192.30769231 , 4154.87179487 , 4262.56410256 , 4525.64102564 , 4357.43589744 , 3864.1025641 , 4374.87179487 , 4007.69230769 , 1723.0 , 1680.0 , 5.971 , 0.0 , 0.0 , 0.0 , 0.0 , 

3.0 , 4508.20512821 , 3969.74358974 , 4335.38461538 , 4392.30769231 , 4208.20512821 , 4030.76923077 , 4191.28205128 , 4153.84615385 , 4264.1025641 , 4526.66666667 , 4358.46153846 , 3864.61538462 , 4373.33333333 , 4006.66666667 , 1723.0 , 1680.0 , 5.979 , 0.0 , 0.0 , 0.0 , 0.0 , 

4.0 , 4510.25641026 , 3970.76923077 , 4335.38461538 , 4394.35897436 , 4214.87179487 , 4031.79487179 , 4192.30769231 , 4151.28205128 , 4266.15384615 , 4526.15384615 , 4358.46153846 , 3861.53846154 , 4372.82051282 , 4008.71794872 , 1724.0 , 1681.0 , 5.985 , 0.0 , 0.0 , 0.0 , 0.0 , 

5.0 , 4509.23076923 , 3967.17948718 , 4334.35897436 , 4397.43589744 , 4215.8974359 , 4029.74358974 , 4195.38461538 , 4154.35897436 , 4265.12820513 , 4524.61538462 , 4360.0 , 3863.07692308 , 4375.38461538 , 4012.30769231 , 1724.0 , 1682.0 , 5.994 , 0.0 , 0.0 , 0.0 , 0.0 , 

6.0 , 4510.76923077 , 3967.17948718 , 4331.79487179 , 4389.74358974 , 4210.76923077 , 4029.23076923 , 4195.8974359 , 4152.82051282 , 4263.58974359 , 4525.12820513 , 4358.97435897 , 3866.15384615 , 4375.38461538 , 4011.79487179 , 1724.0 , 1683.0 , 6.002 , 0.0 , 0.0 , 0.0 , 0.0 , 

7.0 , 4513.84615385 , 3970.76923077 , 4331.28205128 , 4385.12820513 , 4212.30769231 , 4029.74358974 , 4192.30769231 , 4147.17948718 , 4266.15384615 , 4526.15384615 , 4357.94871795 , 3866.66666667 , 4371.79487179 , 4012.30769231 , 1725.0 , 1682.0 , 6.009 , 0.0 , 0.0 , 0.0 , 0.0 , 

8.0 , 4512.30769231 , 3973.84615385 , 4332.82051282 , 4390.76923077 , 4215.8974359 , 4033.84615385 , 4189.74358974 , 4149.74358974 , 4266.66666667 , 4523.58974359 , 4358.46153846 , 3857.94871795 , 4373.84615385 , 4013.84615385 , 1723.0 , 1685.0 , 6.017 , 0.0 , 0.0 , 0.0 , 0.0 , 

9.0 , 4509.74358974 , 3969.74358974 , 4337.43589744 , 4392.82051282 , 4212.82051282 , 4035.38461538 , 4193.84615385 , 4156.92307692 , 4264.1025641 , 4522.56410256 , 4358.46153846 , 3856.41025641 , 4377.43589744 , 4012.30769231 , 1721.0 , 1687.0 , 6.025 , 0.0 , 0.0 , 0.0 , 0.0 , 

10.0 , 4510.76923077 , 3969.23076923 , 4334.87179487 , 4390.25641026 , 4216.92307692 , 4034.35897436 , 4194.35897436 , 4154.35897436 , 4265.64102564 , 4523.07692308 , 4356.41025641 , 3855.38461538 , 4375.38461538 , 4008.20512821 , 1720.0 , 1689.0 , 6.033 , 0.0 , 0.0 , 0.0 , 0.0 , 

11.0 , 4510.76923077 , 3967.69230769 , 4333.33333333 , 4390.76923077 , 4224.61538462 , 4034.87179487 , 4194.35897436 , 4147.17948718 , 4268.20512821 , 4522.56410256 , 4356.41025641 , 3855.8974359 , 4373.84615385 , 4007.69230769 , 1720.0 , 1692.0 , 6.04 , 0.0 , 0.0 , 0.0 , 0.0 , 

12.0 , 4508.71794872 , 3965.12820513 , 4327.69230769 , 4389.23076923 , 4220.51282051 , 4036.92307692 , 4193.84615385 , 4146.15384615 , 4266.15384615 , 4522.56410256 , 4356.92307692 , 3858.46153846 , 4375.8974359 , 4009.23076923 , 1721.0 , 1692.0 , 6.048 , 0.0 , 0.0 , 0.0 , 0.0 , 

13.0 , 4504.1025641 , 3962.05128205 , 4327.17948718 , 4389.74358974 , 4211.79487179 , 4031.79487179 , 4192.82051282 , 4152.82051282 , 4264.1025641 , 4523.58974359 , 4356.41025641 , 3870.25641026 , 4375.38461538 , 4009.74358974 , 1720.0 , 1693.0 , 6.057 , 0.0 , 0.0 , 0.0 , 0.0 , 

14.0 , 4499.48717949 , 3967.17948718 , 4333.84615385 , 4398.97435897 , 4216.92307692 , 4029.74358974 , 4192.30769231 , 4154.87179487 , 4265.12820513 , 4523.58974359 , 4357.94871795 , 3867.69230769 , 4373.33333333 , 4008.71794872 , 1720.0 , 1694.0 , 6.065 , 0.0 , 0.0 , 0.0 , 0.0 , 

15.0 , 4495.38461538 , 3964.1025641 , 4342.56410256 , 4404.1025641 , 4222.56410256 , 4031.28205128 , 4194.35897436 , 4151.79487179 , 4266.15384615 , 4523.58974359 , 4360.51282051 , 3862.05128205 , 4373.33333333 , 4008.71794872 , 1719.0 , 1694.0 , 6.072 , 0.0 , 0.0 , 0.0 , 0.0 , 

16.0 , 4504.1025641 , 3965.12820513 , 4335.8974359 , 4398.46153846 , 4218.97435897 , 4031.28205128 , 4193.84615385 , 4148.20512821 , 4265.64102564 , 4523.07692308 , 4360.51282051 , 3864.61538462 , 4373.84615385 , 4009.23076923 , 1720.0 , 1692.0 , 6.08 , 0.0 , 0.0 , 0.0 , 0.0 , 

17.0 , 4517.94871795 , 3970.76923077 , 4330.25641026 , 4389.23076923 , 4214.87179487 , 4025.64102564 , 4193.84615385 , 4147.69230769 , 4264.1025641 , 4524.1025641 , 4358.97435897 , 3874.87179487 , 4372.82051282 , 4009.74358974 , 1721.0 , 1685.0 , 6.088 , 0.0 , 0.0 , 0.0 , 0.0 , 

18.0 , 4520.51282051 , 3977.43589744 , 4330.76923077 , 4385.64102564 , 4215.38461538 , 4030.25641026 , 4193.84615385 , 4148.20512821 , 4264.61538462 , 4526.66666667 , 4358.97435897 , 3869.23076923 , 4370.76923077 , 4011.28205128 , 1720.0 , 1683.0 , 6.096 , 0.0 , 0.0 , 0.0 , 0.0 , 

19.0 , 4514.35897436 , 3979.48717949 , 4333.84615385 , 4392.30769231 , 4213.33333333 , 4032.82051282 , 4189.23076923 , 4150.25641026 , 4266.66666667 , 4527.69230769 , 4359.48717949 , 3853.33333333 , 4371.79487179 , 4012.30769231 , 1720.0 , 1681.0 , 6.104 , 0.0 , 0.0 , 0.0 , 0.0 , 

20.0 , 4513.84615385 , 3978.46153846 , 4336.92307692 , 4398.46153846 , 4212.82051282 , 4029.23076923 , 4189.23076923 , 4149.74358974 , 4266.15384615 , 4527.17948718 , 4358.97435897 , 3849.23076923 , 4375.38461538 , 4012.30769231 , 1719.0 , 1679.0 , 6.11 , 0.0 , 0.0 , 0.0 , 0.0 , 

21.0 , 4513.84615385 , 3972.82051282 , 4334.87179487 , 4393.33333333 , 4212.82051282 , 4029.74358974 , 4194.87179487 , 4148.71794872 , 4265.64102564 , 4528.20512821 , 4360.0 , 3860.0 , 4374.87179487 , 4010.25641026 , 1720.0 , 1679.0 , 6.118 , 0.0 , 0.0 , 0.0 , 0.0 , 

22.0 , 4515.8974359 , 3967.69230769 , 4327.17948718 , 4384.61538462 , 4214.35897436 , 4035.38461538 , 4194.87179487 , 4149.23076923 , 4266.15384615 , 4526.15384615 , 4359.48717949 , 3865.64102564 , 4372.82051282 , 4009.23076923 , 1721.0 , 1679.0 , 6.126 , 0.0 , 0.0 , 0.0 , 0.0 , 

23.0 , 4521.53846154 , 3969.74358974 , 4323.58974359 , 4383.58974359 , 4223.07692308 , 4035.8974359 , 4192.30769231 , 4148.71794872 , 4264.61538462 , 4524.1025641 , 4358.97435897 , 3860.51282051 , 4372.30769231 , 4010.76923077 , 1722.0 , 1680.0 , 6.135 , 0.0 , 0.0 , 0.0 , 0.0 , 

24.0 , 4514.35897436 , 3967.17948718 , 4330.76923077 , 4387.17948718 , 4226.15384615 , 4031.28205128 , 4193.84615385 , 4148.20512821 , 4263.58974359 , 4524.61538462 , 4358.97435897 , 3865.12820513 , 4373.33333333 , 4011.28205128 , 1724.0 , 1679.0 , 6.143 , 0.0 , 0.0 , 0.0 , 0.0 , 

25.0 , 4508.71794872 , 3967.17948718 , 4330.25641026 , 4390.25641026 , 4213.84615385 , 4030.76923077 , 4191.79487179 , 4149.74358974 , 4267.17948718 , 4523.58974359 , 4356.41025641 , 3866.15384615 , 4376.41025641 , 4010.25641026 , 1723.0 , 1683.0 , 6.151 , 0.0 , 0.0 , 0.0 , 0.0 , 

26.0 , 4513.84615385 , 3970.76923077 , 4330.25641026 , 4393.33333333 , 4202.05128205 , 4030.25641026 , 4189.23076923 , 4153.84615385 , 4268.20512821 , 4523.07692308 , 4357.43589744 , 3860.51282051 , 4376.41025641 , 4012.82051282 , 1722.0 , 1686.0 , 6.157 , 0.0 , 0.0 , 0.0 , 0.0 , 

27.0 , 4514.35897436 , 3971.79487179 , 4330.76923077 , 4393.33333333 , 4210.25641026 , 4031.79487179 , 4190.25641026 , 4155.8974359 , 4264.1025641 , 4526.66666667 , 4358.46153846 , 3858.46153846 , 4374.35897436 , 4014.35897436 , 1718.0 , 1690.0 , 6.166 , 0.0 , 0.0 , 0.0 , 0.0 , 

28.0 , 4506.15384615 , 3963.58974359 , 4332.30769231 , 4390.25641026 , 4217.94871795 , 4029.74358974 , 4193.33333333 , 4154.35897436 , 4264.1025641 , 4526.66666667 , 4357.94871795 , 3869.74358974 , 4373.84615385 , 4012.30769231 , 1720.0 , 1693.0 , 6.174 , 0.0 , 0.0 , 0.0 , 0.0 , 

29.0 , 4504.61538462 , 3963.07692308 , 4330.25641026 , 4389.74358974 , 4215.38461538 , 4033.33333333 , 4192.82051282 , 4148.20512821 , 4266.15384615 , 4524.1025641 , 4357.43589744 , 3863.07692308 , 4375.38461538 , 4011.28205128 , 1720.0 , 1693.0 , 6.181 , 0.0 , 0.0 , 0.0 , 0.0 , 

30.0 , 4507.69230769 , 3965.12820513 , 4331.79487179 , 4391.28205128 , 4212.30769231 , 4031.79487179 , 4193.84615385 , 4148.71794872 , 4263.58974359 , 4524.61538462 , 4359.48717949 , 3856.92307692 , 4375.38461538 , 4011.79487179 , 1721.0 , 1693.0 , 6.189 , 0.0 , 0.0 , 0.0 , 0.0 , 

31.0 , 4509.23076923 , 3970.25641026 , 4333.84615385 , 4389.74358974 , 4214.35897436 , 4033.33333333 , 4194.87179487 , 4153.33333333 , 4262.56410256 , 4526.66666667 , 4360.0 , 3856.92307692 , 4374.87179487 , 4008.71794872 , 1721.0 , 1691.0 , 6.197 , 0.0 , 0.0 , 0.0 , 0.0 , 

32.0 , 4504.61538462 , 3971.28205128 , 4342.05128205 , 4392.82051282 , 4218.46153846 , 4035.8974359 , 4194.35897436 , 4155.8974359 , 4266.15384615 , 4525.64102564 , 4358.46153846 , 3853.84615385 , 4373.84615385 , 4009.74358974 , 1720.0 , 1691.0 , 6.205 , 0.0 , 0.0 , 0.0 , 0.0 , 

33.0 , 4497.94871795 , 3967.17948718 , 4341.53846154 , 4399.48717949 , 4225.12820513 , 4037.94871795 , 4193.84615385 , 4152.82051282 , 4266.15384615 , 4523.58974359 , 4358.46153846 , 3853.33333333 , 4374.87179487 , 4011.79487179 , 1720.0 , 1688.0 , 6.213 , 0.0 , 0.0 , 0.0 , 0.0 , 

34.0 , 4496.41025641 , 3956.41025641 , 4331.28205128 , 4398.97435897 , 4224.61538462 , 4034.35897436 , 4196.41025641 , 4151.79487179 , 4264.1025641 , 4524.1025641 , 4359.48717949 , 3870.25641026 , 4374.87179487 , 4009.23076923 , 1722.0 , 1685.0 , 6.221 , 0.0 , 0.0 , 0.0 , 0.0 , 

35.0 , 4506.66666667 , 3959.48717949 , 4327.17948718 , 4391.28205128 , 4222.56410256 , 4034.87179487 , 4196.92307692 , 4151.79487179 , 4265.12820513 , 4525.12820513 , 4358.46153846 , 3872.30769231 , 4373.84615385 , 4008.71794872 , 1723.0 , 1682.0 , 6.229 , 0.0 , 0.0 , 0.0 , 0.0 , 

36.0 , 4518.46153846 , 3972.82051282 , 4332.30769231 , 4387.17948718 , 4219.48717949 , 4030.76923077 , 4193.84615385 , 4149.23076923 , 4265.12820513 , 4523.58974359 , 4357.94871795 , 3858.46153846 , 4374.35897436 , 4013.33333333 , 1722.0 , 1682.0 , 6.237 , 0.0 , 0.0 , 0.0 , 0.0 , 

37.0 , 4522.05128205 , 3979.48717949 , 4332.30769231 , 4386.66666667 , 4211.28205128 , 4026.66666667 , 4192.30769231 , 4147.17948718 , 4264.61538462 , 4523.07692308 , 4357.43589744 , 3856.41025641 , 4374.87179487 , 4012.82051282 , 1722.0 , 1681.0 , 6.244 , 0.0 , 0.0 , 0.0 , 0.0 , 

38.0 , 4518.97435897 , 3972.30769231 , 4328.20512821 , 4388.20512821 , 4207.69230769 , 4030.76923077 , 4190.25641026 , 4149.74358974 , 4265.12820513 , 4525.12820513 , 4356.92307692 , 3860.51282051 , 4373.33333333 , 4007.69230769 , 1722.0 , 1682.0 , 6.252 , 0.0 , 0.0 , 0.0 , 0.0 , 

39.0 , 4513.84615385 , 3965.64102564 , 4329.74358974 , 4389.74358974 , 4214.35897436 , 4032.82051282 , 4190.25641026 , 4151.79487179 , 4264.61538462 , 4526.15384615 , 4358.97435897 , 3861.53846154 , 4372.82051282 , 4008.20512821 , 1724.0 , 1682.0 , 6.26 , 0.0 , 0.0 , 0.0 , 0.0 , 

40.0 , 4513.84615385 , 3974.35897436 , 4331.28205128 , 4391.28205128 , 4219.48717949 , 4031.79487179 , 4192.82051282 , 4148.71794872 , 4265.12820513 , 4524.1025641 , 4360.51282051 , 3860.0 , 4374.35897436 , 4011.28205128 , 1724.0 , 1683.0 , 6.267 , 0.0 , 0.0 , 0.0 , 0.0 , 

41.0 , 4516.41025641 , 3977.43589744 , 4334.87179487 , 4392.82051282 , 4216.92307692 , 4030.25641026 , 4195.38461538 , 4149.23076923 , 4265.64102564 , 4526.15384615 , 4358.97435897 , 3862.05128205 , 4375.38461538 , 4010.76923077 , 1723.0 , 1685.0 , 6.276 , 0.0 , 0.0 , 0.0 , 0.0 , 

42.0 , 4514.35897436 , 3971.79487179 , 4335.38461538 , 4391.28205128 , 4215.8974359 , 4036.41025641 , 4192.82051282 , 4151.28205128 , 4264.61538462 , 4527.69230769 , 4357.94871795 , 3858.97435897 , 4374.35897436 , 4009.74358974 , 1724.0 , 1685.0 , 6.284 , 0.0 , 0.0 , 0.0 , 0.0 , 

43.0 , 4508.71794872 , 3966.66666667 , 4336.92307692 , 4389.74358974 , 4216.41025641 , 4041.02564103 , 4191.28205128 , 4152.82051282 , 4265.12820513 , 4526.15384615 , 4358.46153846 , 3857.94871795 , 4373.84615385 , 4007.69230769 , 1724.0 , 1687.0 , 6.291 , 0.0 , 0.0 , 0.0 , 0.0 , 

44.0 , 4512.30769231 , 3971.28205128 , 4336.41025641 , 4392.30769231 , 4215.38461538 , 4037.43589744 , 4192.82051282 , 4153.33333333 , 4268.20512821 , 4525.12820513 , 4358.97435897 , 3861.53846154 , 4374.35897436 , 4009.23076923 , 1725.0 , 1686.0 , 6.299 , 0.0 , 0.0 , 0.0 , 0.0 , 

45.0 , 4512.82051282 , 3968.20512821 , 4336.92307692 , 4393.84615385 , 4213.84615385 , 4029.74358974 , 4194.35897436 , 4153.84615385 , 4266.15384615 , 4527.17948718 , 4361.02564103 , 3873.33333333 , 4373.84615385 , 4015.8974359 , 1724.0 , 1685.0 , 6.307 , 0.0 , 0.0 , 0.0 , 0.0 , 

46.0 , 4509.74358974 , 3968.71794872 , 4332.82051282 , 4392.30769231 , 4215.38461538 , 4031.79487179 , 4192.30769231 , 4152.30769231 , 4263.07692308 , 4526.66666667 , 4361.53846154 , 3869.74358974 , 4374.35897436 , 4014.35897436 , 1724.0 , 1685.0 , 6.315 , 0.0 , 0.0 , 0.0 , 0.0 , 

47.0 , 4511.28205128 , 3972.30769231 , 4333.84615385 , 4390.25641026 , 4212.82051282 , 4032.30769231 , 4191.28205128 , 4152.30769231 , 4266.15384615 , 4524.1025641 , 4359.48717949 , 3861.53846154 , 4375.38461538 , 4008.71794872 , 1722.0 , 1686.0 , 6.323 , 0.0 , 0.0 , 0.0 , 0.0 , 

48.0 , 4513.33333333 , 3971.79487179 , 4334.35897436 , 4389.74358974 , 4211.79487179 , 4031.28205128 , 4191.28205128 , 4150.25641026 , 4268.20512821 , 4525.64102564 , 4356.92307692 , 3860.0 , 4375.38461538 , 4010.25641026 , 1723.0 , 1685.0 , 6.33 , 0.0 , 0.0 , 0.0 , 0.0 , 

49.0 , 4507.69230769 , 3962.56410256 , 4332.82051282 , 4390.76923077 , 4214.87179487 , 4030.76923077 , 4194.87179487 , 4149.74358974 , 4265.64102564 , 4527.17948718 , 4356.92307692 , 3867.69230769 , 4375.38461538 , 4013.33333333 , 1722.0 , 1684.0 , 6.338 , 0.0 , 0.0 , 0.0 , 0.0 , 

50.0 , 4506.66666667 , 3966.15384615 , 4330.25641026 , 4391.79487179 , 4218.97435897 , 4033.84615385 , 4195.8974359 , 4151.79487179 , 4263.58974359 , 4526.66666667 , 4356.92307692 , 3866.66666667 , 4374.35897436 , 4010.76923077 , 1722.0 , 1684.0 , 6.346 , 0.0 , 0.0 , 0.0 , 0.0 , 

51.0 , 4511.79487179 , 3971.79487179 , 4332.82051282 , 4391.79487179 , 4215.8974359 , 4031.79487179 , 4194.35897436 , 4152.30769231 , 4265.64102564 , 4525.12820513 , 4357.94871795 , 3865.64102564 , 4371.79487179 , 4010.76923077 , 1721.0 , 1683.0 , 6.354 , 0.0 , 0.0 , 0.0 , 0.0 , 

52.0 , 4515.8974359 , 3972.30769231 , 4335.8974359 , 4392.82051282 , 4214.87179487 , 4028.71794872 , 4193.33333333 , 4150.76923077 , 4267.69230769 , 4525.64102564 , 4360.51282051 , 3863.07692308 , 4372.30769231 , 4013.33333333 , 1721.0 , 1686.0 , 6.362 , 0.0 , 0.0 , 0.0 , 0.0 , 

53.0 , 4512.30769231 , 3969.74358974 , 4336.41025641 , 4392.82051282 , 4219.48717949 , 4032.82051282 , 4194.35897436 , 4151.79487179 , 4265.64102564 , 4526.66666667 , 4358.46153846 , 3855.8974359 , 4375.38461538 , 4011.79487179 , 1721.0 , 1685.0 , 6.369 , 0.0 , 0.0 , 0.0 , 0.0 , 

54.0 , 4508.20512821 , 3967.17948718 , 4337.43589744 , 4390.25641026 , 4220.51282051 , 4037.94871795 , 4195.8974359 , 4152.30769231 , 4262.56410256 , 4524.1025641 , 4356.92307692 , 3856.92307692 , 4375.38461538 , 4010.25641026 , 1721.0 , 1686.0 , 6.377 , 0.0 , 0.0 , 0.0 , 0.0 , 

55.0 , 4512.30769231 , 3969.74358974 , 4334.87179487 , 4390.76923077 , 4218.46153846 , 4033.84615385 , 4194.87179487 , 4150.25641026 , 4263.58974359 , 4522.56410256 , 4358.46153846 , 3859.48717949 , 4373.33333333 , 4011.79487179 , 1722.0 , 1686.0 , 6.385 , 0.0 , 0.0 , 0.0 , 0.0 , 

56.0 , 4515.38461538 , 3974.35897436 , 4335.38461538 , 4392.30769231 , 4215.38461538 , 4029.23076923 , 4193.84615385 , 4150.25641026 , 4266.15384615 , 4524.61538462 , 4359.48717949 , 3858.46153846 , 4373.33333333 , 4013.33333333 , 1721.0 , 1687.0 , 6.393 , 0.0 , 0.0 , 0.0 , 0.0 , 

57.0 , 4512.82051282 , 3974.87179487 , 4333.84615385 , 4392.82051282 , 4216.41025641 , 4033.33333333 , 4193.84615385 , 4150.76923077 , 4265.64102564 , 4527.17948718 , 4357.43589744 , 3859.48717949 , 4374.87179487 , 4012.82051282 , 1722.0 , 1687.0 , 6.401 , 0.0 , 0.0 , 0.0 , 0.0 , 

58.0 , 4509.23076923 , 3968.20512821 , 4334.87179487 , 4392.82051282 , 4217.94871795 , 4030.76923077 , 4194.87179487 , 4153.84615385 , 4264.1025641 , 4525.64102564 , 4356.92307692 , 3868.71794872 , 4376.92307692 , 4011.79487179 , 1721.0 , 1687.0 , 6.409 , 0.0 , 0.0 , 0.0 , 0.0 , 

59.0 , 4513.33333333 , 3969.74358974 , 4333.33333333 , 4392.30769231 , 4217.94871795 , 4028.20512821 , 4194.35897436 , 4150.25641026 , 4265.64102564 , 4524.61538462 , 4358.97435897 , 3867.17948718 , 4375.8974359 , 4011.79487179 , 1722.0 , 1687.0 , 6.415 , 0.0 , 0.0 , 0.0 , 0.0 , 

60.0 , 4515.38461538 , 3968.20512821 , 4332.82051282 , 4392.82051282 , 4212.30769231 , 4026.66666667 , 4194.35897436 , 4145.12820513 , 4267.69230769 , 4525.64102564 , 4362.05128205 , 3871.28205128 , 4373.84615385 , 4009.74358974 , 1722.0 , 1687.0 , 6.424 , 0.0 , 0.0 , 0.0 , 0.0 , 

61.0 , 4514.87179487 , 3969.23076923 , 4331.28205128 , 4392.30769231 , 4212.30769231 , 4028.20512821 , 4192.82051282 , 4146.66666667 , 4265.64102564 , 4524.61538462 , 4361.02564103 , 3870.76923077 , 4374.35897436 , 4008.20512821 , 1722.0 , 1685.0 , 6.432 , 0.0 , 0.0 , 0.0 , 0.0 , 

62.0 , 4513.33333333 , 3969.74358974 , 4332.30769231 , 4390.25641026 , 4218.46153846 , 4029.23076923 , 4192.82051282 , 4151.79487179 , 4263.58974359 , 4525.64102564 , 4358.97435897 , 3863.58974359 , 4373.33333333 , 4011.28205128 , 1721.0 , 1684.0 , 6.44 , 0.0 , 0.0 , 0.0 , 0.0 , 

63.0 , 4511.79487179 , 3967.69230769 , 4329.74358974 , 4389.23076923 , 4222.56410256 , 4033.33333333 , 4193.33333333 , 4151.28205128 , 4267.17948718 , 4526.15384615 , 4359.48717949 , 3860.0 , 4373.84615385 , 4010.76923077 , 1721.0 , 1684.0 , 6.448 , 0.0 , 0.0 , 0.0 , 0.0 , 

64.0 , 4506.15384615 , 3960.51282051 , 4330.25641026 , 4391.79487179 , 4216.92307692 , 4032.30769231 , 4195.38461538 , 4149.23076923 , 4268.71794872 , 4523.58974359 , 4360.0 , 3874.87179487 , 4375.38461538 , 4010.25641026 , 1723.0 , 1682.0 , 6.455 , 0.0 , 0.0 , 0.0 , 0.0 , 

65.0 , 4507.17948718 , 3966.66666667 , 4332.30769231 , 4390.76923077 , 4212.82051282 , 4033.33333333 , 4193.84615385 , 4148.71794872 , 4266.15384615 , 4522.05128205 , 4357.94871795 , 3870.76923077 , 4375.38461538 , 4012.82051282 , 1722.0 , 1682.0 , 6.463 , 0.0 , 0.0 , 0.0 , 0.0 , 

66.0 , 4511.28205128 , 3974.35897436 , 4334.87179487 , 4391.28205128 , 4213.84615385 , 4033.33333333 , 4191.79487179 , 4153.33333333 , 4264.1025641 , 4525.64102564 , 4357.43589744 , 3855.8974359 , 4374.87179487 , 4013.33333333 , 1723.0 , 1681.0 , 6.471 , 0.0 , 0.0 , 0.0 , 0.0 , 

67.0 , 4511.28205128 , 3973.84615385 , 4335.8974359 , 4392.82051282 , 4218.46153846 , 4035.38461538 , 4192.30769231 , 4154.35897436 , 4264.1025641 , 4527.69230769 , 4357.94871795 , 3855.8974359 , 4374.87179487 , 4010.76923077 , 1723.0 , 1680.0 , 6.479 , 0.0 , 0.0 , 0.0 , 0.0 , 

68.0 , 4510.25641026 , 3968.20512821 , 4336.41025641 , 4390.25641026 , 4221.53846154 , 4035.38461538 , 4194.35897436 , 4149.23076923 , 4263.07692308 , 4526.66666667 , 4358.46153846 , 3861.53846154 , 4373.84615385 , 4013.33333333 , 1723.0 , 1681.0 , 6.487 , 0.0 , 0.0 , 0.0 , 0.0 , 

69.0 , 4512.82051282 , 3968.20512821 , 4332.82051282 , 4389.74358974 , 4219.48717949 , 4033.84615385 , 4193.33333333 , 4146.15384615 , 4264.1025641 , 4524.61538462 , 4357.94871795 , 3860.0 , 4373.33333333 , 4014.87179487 , 1724.0 , 1681.0 , 6.495 , 0.0 , 0.0 , 0.0 , 0.0 , 

70.0 , 4510.25641026 , 3968.20512821 , 4330.76923077 , 4391.79487179 , 4215.8974359 , 4033.84615385 , 4190.25641026 , 4151.79487179 , 4267.69230769 , 4524.1025641 , 4356.92307692 , 3860.51282051 , 4375.38461538 , 4010.25641026 , 1724.0 , 1683.0 , 6.502 , 0.0 , 0.0 , 0.0 , 0.0 , 

71.0 , 4506.66666667 , 3966.15384615 , 4333.84615385 , 4390.25641026 , 4215.38461538 , 4037.43589744 , 4190.76923077 , 4155.38461538 , 4266.15384615 , 4526.66666667 , 4357.94871795 , 3863.07692308 , 4375.8974359 , 4007.69230769 , 1724.0 , 1684.0 , 6.509 , 0.0 , 0.0 , 0.0 , 0.0 , 

72.0 , 4508.71794872 , 3964.1025641 , 4332.30769231 , 4387.17948718 , 4213.33333333 , 4034.35897436 , 4192.82051282 , 4150.76923077 , 4264.1025641 , 4526.15384615 , 4360.0 , 3864.1025641 , 4373.84615385 , 4011.28205128 , 1724.0 , 1684.0 , 6.518 , 0.0 , 0.0 , 0.0 , 0.0 , 

73.0 , 4509.74358974 , 3960.51282051 , 4330.76923077 , 4389.23076923 , 4209.23076923 , 4026.15384615 , 4193.84615385 , 4150.25641026 , 4265.12820513 , 4525.12820513 , 4361.53846154 , 3868.71794872 , 4373.33333333 , 4013.33333333 , 1723.0 , 1684.0 , 6.526 , 0.0 , 0.0 , 0.0 , 0.0 , 

74.0 , 4510.76923077 , 3967.69230769 , 4330.25641026 , 4392.30769231 , 4208.71794872 , 4029.74358974 , 4193.33333333 , 4153.33333333 , 4265.64102564 , 4526.15384615 , 4358.97435897 , 3861.53846154 , 4373.84615385 , 4008.20512821 , 1724.0 , 1684.0 , 6.534 , 0.0 , 0.0 , 0.0 , 0.0 , 

75.0 , 4512.30769231 , 3973.84615385 , 4335.38461538 , 4391.79487179 , 4211.28205128 , 4033.84615385 , 4193.84615385 , 4154.87179487 , 4264.61538462 , 4526.15384615 , 4355.8974359 , 3857.43589744 , 4372.82051282 , 4009.23076923 , 1723.0 , 1684.0 , 6.542 , 0.0 , 0.0 , 0.0 , 0.0 , 

76.0 , 4509.23076923 , 3969.74358974 , 4335.38461538 , 4391.28205128 , 4215.38461538 , 4032.82051282 , 4193.84615385 , 4153.33333333 , 4264.61538462 , 4526.15384615 , 4356.41025641 , 3864.1025641 , 4372.30769231 , 4012.30769231 , 1722.0 , 1685.0 , 6.549 , 0.0 , 0.0 , 0.0 , 0.0 , 

77.0 , 4505.64102564 , 3962.56410256 , 4335.38461538 , 4391.28205128 , 4214.35897436 , 4031.28205128 , 4194.87179487 , 4153.33333333 , 4264.61538462 , 4526.15384615 , 4358.46153846 , 3869.74358974 , 4373.84615385 , 4010.25641026 , 1721.0 , 1685.0 , 6.557 , 0.0 , 0.0 , 0.0 , 0.0 , 

78.0 , 4510.76923077 , 3972.82051282 , 4334.35897436 , 4390.25641026 , 4215.38461538 , 4038.97435897 , 4192.30769231 , 4150.76923077 , 4264.1025641 , 4524.1025641 , 4357.43589744 , 3854.35897436 , 4374.87179487 , 4007.69230769 , 1723.0 , 1686.0 , 6.565 , 0.0 , 0.0 , 0.0 , 0.0 , 

79.0 , 4510.25641026 , 3974.87179487 , 4338.46153846 , 4393.33333333 , 4220.0 , 4040.51282051 , 4190.76923077 , 4149.23076923 , 4264.1025641 , 4524.61538462 , 4358.46153846 , 3853.33333333 , 4375.38461538 , 4009.74358974 , 1723.0 , 1686.0 , 6.573 , 0.0 , 0.0 , 0.0 , 0.0 , 

80.0 , 4508.71794872 , 3970.76923077 , 4335.8974359 , 4393.33333333 , 4223.58974359 , 4037.43589744 , 4193.33333333 , 4149.74358974 , 4265.12820513 , 4527.17948718 , 4360.51282051 , 3860.51282051 , 4375.38461538 , 4010.76923077 , 1722.0 , 1686.0 , 6.581 , 0.0 , 0.0 , 0.0 , 0.0 , 

81.0 , 4512.82051282 , 3972.82051282 , 4333.84615385 , 4386.15384615 , 4218.97435897 , 4034.87179487 , 4195.38461538 , 4151.79487179 , 4267.69230769 , 4526.15384615 , 4361.02564103 , 3861.53846154 , 4374.35897436 , 4011.28205128 , 1720.0 , 1687.0 , 6.588 , 0.0 , 0.0 , 0.0 , 0.0 , 

82.0 , 4515.8974359 , 3977.94871795 , 4337.43589744 , 4387.17948718 , 4215.38461538 , 4034.35897436 , 4192.82051282 , 4151.28205128 , 4267.69230769 , 4525.64102564 , 4360.51282051 , 3858.46153846 , 4374.87179487 , 4011.79487179 , 1719.0 , 1690.0 , 6.596 , 0.0 , 0.0 , 0.0 , 0.0 , 

83.0 , 4511.79487179 , 3968.71794872 , 4335.8974359 , 4393.84615385 , 4211.79487179 , 4028.71794872 , 4192.82051282 , 4149.74358974 , 4264.61538462 , 4528.20512821 , 4360.0 , 3869.23076923 , 4374.35897436 , 4010.76923077 , 1719.0 , 1688.0 , 6.604 , 0.0 , 0.0 , 0.0 , 0.0 , 

84.0 , 4511.28205128 , 3965.12820513 , 4329.74358974 , 4393.33333333 , 4212.82051282 , 4030.25641026 , 4196.92307692 , 4148.20512821 , 4264.61538462 , 4527.17948718 , 4358.46153846 , 3872.30769231 , 4374.87179487 , 4008.71794872 , 1720.0 , 1690.0 , 6.612 , 0.0 , 0.0 , 0.0 , 0.0 , 

85.0 , 4513.33333333 , 3971.28205128 , 4334.87179487 , 4391.28205128 , 4221.53846154 , 4036.41025641 , 4197.43589744 , 4148.20512821 , 4265.64102564 , 4525.12820513 , 4356.92307692 , 3863.58974359 , 4373.84615385 , 4010.76923077 , 1722.0 , 1689.0 , 6.62 , 0.0 , 0.0 , 0.0 , 0.0 , 

86.0 , 4514.87179487 , 3975.8974359 , 4338.46153846 , 4393.33333333 , 4223.07692308 , 4035.8974359 , 4194.87179487 , 4149.74358974 , 4264.1025641 , 4526.15384615 , 4357.94871795 , 3862.56410256 , 4373.33333333 , 4012.30769231 , 1721.0 , 1688.0 , 6.628 , 0.0 , 0.0 , 0.0 , 0.0 , 

87.0 , 4513.84615385 , 3972.30769231 , 4330.76923077 , 4392.82051282 , 4211.79487179 , 4028.71794872 , 4191.79487179 , 4152.82051282 , 4263.58974359 , 4526.15384615 , 4359.48717949 , 3866.66666667 , 4374.35897436 , 4010.76923077 , 1721.0 , 1688.0 , 6.635 , 0.0 , 0.0 , 0.0 , 0.0 , 

88.0 , 4508.71794872 , 3963.58974359 , 4331.79487179 , 4391.28205128 , 4207.17948718 , 4027.17948718 , 4192.30769231 , 4155.38461538 , 4263.07692308 , 4525.64102564 , 4360.0 , 3866.66666667 , 4375.38461538 , 4010.25641026 , 1720.0 , 1687.0 , 6.643 , 0.0 , 0.0 , 0.0 , 0.0 , 

89.0 , 4509.23076923 , 3965.64102564 , 4337.94871795 , 4391.79487179 , 4215.8974359 , 4035.8974359 , 4195.38461538 , 4150.25641026 , 4262.56410256 , 4526.66666667 , 4358.97435897 , 3861.53846154 , 4374.35897436 , 4010.76923077 , 1721.0 , 1687.0 , 6.651 , 0.0 , 0.0 , 0.0 , 0.0 , 

90.0 , 4512.82051282 , 3975.38461538 , 4336.41025641 , 4392.82051282 , 4222.56410256 , 4041.02564103 , 4197.43589744 , 4145.12820513 , 4264.1025641 , 4525.64102564 , 4356.41025641 , 3860.0 , 4373.84615385 , 4007.69230769 , 1721.0 , 1685.0 , 6.659 , 0.0 , 0.0 , 0.0 , 0.0 , 

91.0 , 4509.74358974 , 3974.87179487 , 4331.28205128 , 4391.28205128 , 4223.58974359 , 4036.41025641 , 4194.35897436 , 4145.64102564 , 4265.64102564 , 4524.1025641 , 4355.38461538 , 3859.48717949 , 4374.87179487 , 4007.17948718 , 1722.0 , 1686.0 , 6.667 , 0.0 , 0.0 , 0.0 , 0.0 , 

92.0 , 4509.23076923 , 3965.12820513 , 4336.92307692 , 4391.28205128 , 4214.35897436 , 4029.23076923 , 4192.82051282 , 4152.82051282 , 4265.12820513 , 4525.64102564 , 4358.46153846 , 3865.12820513 , 4374.35897436 , 4011.28205128 , 1722.0 , 1685.0 , 6.673 , 0.0 , 0.0 , 0.0 , 0.0 , 

93.0 , 4517.94871795 , 3974.87179487 , 4335.8974359 , 4391.28205128 , 4205.64102564 , 4032.30769231 , 4192.30769231 , 4153.33333333 , 4265.64102564 , 4527.17948718 , 4358.97435897 , 3860.0 , 4374.35897436 , 4010.76923077 , 1721.0 , 1686.0 , 6.682 , 0.0 , 0.0 , 0.0 , 0.0 , 

94.0 , 4515.8974359 , 3976.92307692 , 4335.8974359 , 4391.79487179 , 4209.74358974 , 4032.82051282 , 4195.8974359 , 4150.25641026 , 4266.15384615 , 4525.64102564 , 4356.41025641 , 3856.92307692 , 4374.87179487 , 4010.76923077 , 1724.0 , 1684.0 , 6.69 , 0.0 , 0.0 , 0.0 , 0.0 , 

95.0 , 4507.17948718 , 3966.15384615 , 4335.38461538 , 4392.30769231 , 4221.02564103 , 4032.82051282 , 4198.97435897 , 4149.23076923 , 4265.64102564 , 4523.58974359 , 4357.94871795 , 3858.46153846 , 4373.84615385 , 4011.28205128 , 1723.0 , 1684.0 , 6.698 , 0.0 , 0.0 , 0.0 , 0.0 , 

96.0 , 4503.58974359 , 3959.48717949 , 4333.84615385 , 4392.82051282 , 4224.61538462 , 4034.35897436 , 4198.97435897 , 4150.76923077 , 4265.12820513 , 4523.58974359 , 4360.0 , 3867.17948718 , 4373.33333333 , 4009.74358974 , 1725.0 , 1684.0 , 6.706 , 0.0 , 0.0 , 0.0 , 0.0 , 

97.0 , 4508.71794872 , 3967.69230769 , 4328.20512821 , 4392.30769231 , 4225.64102564 , 4037.94871795 , 4194.87179487 , 4150.25641026 , 4265.12820513 , 4526.15384615 , 4357.94871795 , 3865.64102564 , 4373.84615385 , 4010.76923077 , 1724.0 , 1684.0 , 6.714 , 0.0 , 0.0 , 0.0 , 0.0 , 

98.0 , 4510.76923077 , 3970.25641026 , 4330.25641026 , 4392.30769231 , 4220.0 , 4033.84615385 , 4195.8974359 , 4148.20512821 , 4265.12820513 , 4528.20512821 , 4357.43589744 , 3863.58974359 , 4372.82051282 , 4012.82051282 , 1724.0 , 1686.0 , 6.721 , 0.0 , 0.0 , 0.0 , 0.0 , 

99.0 , 4512.82051282 , 3971.79487179 , 4334.87179487 , 4389.74358974 , 4210.76923077 , 4031.79487179 , 4195.38461538 , 4147.17948718 , 4265.12820513 , 4525.64102564 , 4358.97435897 , 3860.51282051 , 4372.30769231 , 4011.79487179 , 1724.0 , 1685.0 , 6.729 , 0.0 , 0.0 , 0.0 , 0.0 , 

100.0 , 4514.87179487 , 3972.82051282 , 4336.92307692 , 4387.17948718 , 4204.1025641 , 4032.30769231 , 4189.74358974 , 4149.74358974 , 4264.61538462 , 4523.07692308 , 4358.97435897 , 3860.0 , 4373.33333333 , 4011.79487179 , 1724.0 , 1685.0 , 6.737 , 0.0 , 0.0 , 0.0 , 0.0 , 

101.0 , 4516.41025641 , 3973.33333333 , 4335.8974359 , 4391.28205128 , 4205.12820513 , 4032.82051282 , 4190.25641026 , 4152.82051282 , 4264.61538462 , 4526.15384615 , 4357.94871795 , 3864.61538462 , 4372.82051282 , 4012.82051282 , 1724.0 , 1685.0 , 6.745 , 0.0 , 0.0 , 0.0 , 0.0 , 

102.0 , 4515.38461538 , 3974.35897436 , 4330.25641026 , 4392.82051282 , 4211.28205128 , 4030.76923077 , 4194.35897436 , 4153.33333333 , 4265.64102564 , 4528.20512821 , 4357.43589744 , 3864.61538462 , 4371.79487179 , 4009.23076923 , 1724.0 , 1684.0 , 6.753 , 0.0 , 0.0 , 0.0 , 0.0 , 

103.0 , 4511.79487179 , 3972.30769231 , 4332.82051282 , 4388.71794872 , 4220.0 , 4032.82051282 , 4193.33333333 , 4151.28205128 , 4264.61538462 , 4524.61538462 , 4357.43589744 , 3859.48717949 , 4375.38461538 , 4008.20512821 , 1725.0 , 1684.0 , 6.76 , 0.0 , 0.0 , 0.0 , 0.0 , 

104.0 , 4509.23076923 , 3967.17948718 , 4337.43589744 , 4392.30769231 , 4226.66666667 , 4035.38461538 , 4193.84615385 , 4150.76923077 , 4263.07692308 , 4522.56410256 , 4358.46153846 , 3858.97435897 , 4376.92307692 , 4011.79487179 , 1724.0 , 1685.0 , 6.767 , 0.0 , 0.0 , 0.0 , 0.0 , 

105.0 , 4509.23076923 , 3967.17948718 , 4334.87179487 , 4396.41025641 , 4226.15384615 , 4034.87179487 , 4196.41025641 , 4154.35897436 , 4264.1025641 , 4524.1025641 , 4358.46153846 , 3865.64102564 , 4373.84615385 , 4012.30769231 , 1725.0 , 1684.0 , 6.775 , 0.0 , 0.0 , 0.0 , 0.0 , 

106.0 , 4511.79487179 , 3973.33333333 , 4332.30769231 , 4392.30769231 , 4219.48717949 , 4034.35897436 , 4192.30769231 , 4153.84615385 , 4265.12820513 , 4524.1025641 , 4358.97435897 , 3863.58974359 , 4373.84615385 , 4010.76923077 , 1723.0 , 1684.0 , 6.783 , 0.0 , 0.0 , 0.0 , 0.0 , 

107.0 , 4514.87179487 , 3972.82051282 , 4336.41025641 , 4389.74358974 , 4208.71794872 , 4030.76923077 , 4190.25641026 , 4149.23076923 , 4264.61538462 , 4523.58974359 , 4360.0 , 3865.64102564 , 4374.87179487 , 4012.30769231 , 1724.0 , 1684.0 , 6.791 , 0.0 , 0.0 , 0.0 , 0.0 , 

108.0 , 4514.87179487 , 3972.30769231 , 4333.84615385 , 4393.33333333 , 4208.71794872 , 4034.87179487 , 4192.82051282 , 4148.20512821 , 4264.61538462 , 4523.07692308 , 4358.97435897 , 3863.58974359 , 4372.82051282 , 4010.25641026 , 1723.0 , 1684.0 , 6.799 , 0.0 , 0.0 , 0.0 , 0.0 , 

109.0 , 4509.74358974 , 3970.76923077 , 4333.84615385 , 4393.33333333 , 4212.82051282 , 4037.43589744 , 4194.35897436 , 4154.87179487 , 4265.12820513 , 4524.1025641 , 4356.92307692 , 3858.46153846 , 4373.33333333 , 4007.69230769 , 1723.0 , 1684.0 , 6.806 , 0.0 , 0.0 , 0.0 , 0.0 , 

110.0 , 4511.28205128 , 3971.79487179 , 4335.8974359 , 4392.30769231 , 4216.41025641 , 4035.38461538 , 4195.38461538 , 4154.87179487 , 4265.64102564 , 4526.66666667 , 4356.41025641 , 3857.94871795 , 4375.8974359 , 4009.74358974 , 1723.0 , 1683.0 , 6.815 , 0.0 , 0.0 , 0.0 , 0.0 , 

111.0 , 4515.8974359 , 3969.74358974 , 4335.38461538 , 4394.87179487 , 4217.43589744 , 4029.74358974 , 4197.43589744 , 4148.20512821 , 4265.64102564 , 4526.66666667 , 4357.94871795 , 3871.79487179 , 4374.35897436 , 4013.33333333 , 1723.0 , 1685.0 , 6.823 , 0.0 , 0.0 , 0.0 , 0.0 , 

112.0 , 4516.41025641 , 3975.38461538 , 4330.76923077 , 4393.84615385 , 4217.43589744 , 4032.82051282 , 4194.35897436 , 4145.64102564 , 4265.12820513 , 4525.12820513 , 4359.48717949 , 3868.20512821 , 4372.82051282 , 4012.30769231 , 1723.0 , 1684.0 , 6.831 , 0.0 , 0.0 , 0.0 , 0.0 , 

113.0 , 4511.28205128 , 3975.38461538 , 4335.8974359 , 4391.28205128 , 4216.41025641 , 4035.8974359 , 4194.35897436 , 4150.25641026 , 4264.1025641 , 4525.64102564 , 4359.48717949 , 3856.92307692 , 4374.87179487 , 4012.30769231 , 1723.0 , 1686.0 , 6.838 , 0.0 , 0.0 , 0.0 , 0.0 , 

114.0 , 4512.30769231 , 3975.8974359 , 4339.48717949 , 4390.76923077 , 4216.92307692 , 4034.87179487 , 4194.87179487 , 4150.25641026 , 4264.61538462 , 4525.12820513 , 4358.97435897 , 3853.33333333 , 4374.87179487 , 4011.79487179 , 1724.0 , 1685.0 , 6.847 , 0.0 , 0.0 , 0.0 , 0.0 , 

115.0 , 4516.92307692 , 3975.8974359 , 4337.43589744 , 4390.76923077 , 4215.8974359 , 4028.20512821 , 4193.33333333 , 4146.15384615 , 4265.64102564 , 4523.58974359 , 4361.02564103 , 3861.02564103 , 4373.84615385 , 4010.25641026 , 1722.0 , 1687.0 , 6.854 , 0.0 , 0.0 , 0.0 , 0.0 , 

116.0 , 4514.35897436 , 3974.35897436 , 4332.82051282 , 4389.74358974 , 4214.87179487 , 4029.23076923 , 4193.84615385 , 4147.17948718 , 4265.12820513 , 4524.1025641 , 4361.53846154 , 3863.07692308 , 4374.35897436 , 4010.76923077 , 1722.0 , 1687.0 , 6.862 , 0.0 , 0.0 , 0.0 , 0.0 , 

117.0 , 4504.61538462 , 3965.12820513 , 4332.82051282 , 4391.28205128 , 4217.43589744 , 4035.38461538 , 4194.35897436 , 4153.84615385 , 4264.61538462 , 4526.15384615 , 4357.43589744 , 3862.56410256 , 4374.87179487 , 4010.76923077 , 1720.0 , 1688.0 , 6.87 , 0.0 , 0.0 , 0.0 , 0.0 , 

118.0 , 4506.66666667 , 3964.61538462 , 4335.38461538 , 4392.82051282 , 4218.97435897 , 4038.97435897 , 4193.33333333 , 4155.8974359 , 4265.12820513 , 4525.12820513 , 4355.8974359 , 3858.46153846 , 4374.87179487 , 4008.71794872 , 1722.0 , 1688.0 , 6.878 , 0.0 , 0.0 , 0.0 , 0.0 , 

119.0 , 4516.92307692 , 3974.35897436 , 4335.8974359 , 4391.79487179 , 4213.84615385 , 4032.82051282 , 4193.33333333 , 4151.28205128 , 4265.12820513 , 4524.61538462 , 4357.94871795 , 3854.87179487 , 4374.35897436 , 4008.71794872 , 1721.0 , 1687.0 , 6.886 , 0.0 , 0.0 , 0.0 , 0.0 , 

120.0 , 4516.41025641 , 3976.41025641 , 4335.8974359 , 4391.79487179 , 4208.71794872 , 4028.20512821 , 4194.35897436 , 4148.71794872 , 4264.61538462 , 4525.64102564 , 4358.97435897 , 3858.97435897 , 4373.84615385 , 4009.74358974 , 1722.0 , 1688.0 , 6.893 , 0.0 , 0.0 , 0.0 , 0.0 , 

121.0 , 4512.82051282 , 3974.87179487 , 4332.82051282 , 4392.82051282 , 4211.79487179 , 4031.28205128 , 4193.33333333 , 4149.74358974 , 4264.61538462 , 4524.61538462 , 4357.94871795 , 3858.97435897 , 4373.84615385 , 4009.23076923 , 1722.0 , 1687.0 , 6.9 , 0.0 , 0.0 , 0.0 , 0.0 , 

122.0 , 4516.41025641 , 3973.84615385 , 4332.82051282 , 4392.82051282 , 4216.92307692 , 4032.30769231 , 4195.38461538 , 4153.84615385 , 4264.61538462 , 4524.61538462 , 4360.0 , 3861.02564103 , 4374.87179487 , 4010.76923077 , 1721.0 , 1687.0 , 6.908 , 0.0 , 0.0 , 0.0 , 0.0 , 

123.0 , 4512.30769231 , 3970.76923077 , 4334.87179487 , 4392.30769231 , 4220.51282051 , 4035.8974359 , 4197.94871795 , 4154.35897436 , 4267.69230769 , 4527.17948718 , 4360.51282051 , 3863.07692308 , 4374.35897436 , 4013.33333333 , 1723.0 , 1686.0 , 6.916 , 0.0 , 0.0 , 0.0 , 0.0 , 

124.0 , 4503.58974359 , 3963.07692308 , 4338.46153846 , 4393.33333333 , 4221.02564103 , 4036.92307692 , 4198.46153846 , 4151.79487179 , 4268.71794872 , 4526.66666667 , 4358.46153846 , 3865.12820513 , 4373.84615385 , 4012.82051282 , 1723.0 , 1686.0 , 6.925 , 0.0 , 0.0 , 0.0 , 0.0 , 

125.0 , 4509.23076923 , 3966.15384615 , 4334.87179487 , 4394.35897436 , 4221.53846154 , 4038.46153846 , 4195.8974359 , 4149.23076923 , 4264.61538462 , 4522.56410256 , 4356.41025641 , 3857.94871795 , 4374.35897436 , 4009.74358974 , 1722.0 , 1685.0 , 6.932 , 0.0 , 0.0 , 0.0 , 0.0 , 

126.0 , 4514.35897436 , 3970.25641026 , 4336.92307692 , 4392.82051282 , 4216.41025641 , 4037.94871795 , 4193.84615385 , 4152.30769231 , 4262.56410256 , 4523.58974359 , 4357.43589744 , 3857.94871795 , 4372.82051282 , 4009.23076923 , 1721.0 , 1685.0 , 6.94 , 0.0 , 0.0 , 0.0 , 0.0 , 

127.0 , 4514.87179487 , 3973.84615385 , 4334.87179487 , 4391.28205128 , 4212.82051282 , 4037.43589744 , 4191.79487179 , 4152.30769231 , 4266.15384615 , 4526.15384615 , 4358.97435897 , 3860.51282051 , 4373.84615385 , 4011.28205128 , 1721.0 , 1685.0 , 6.948 , 0.0 , 0.0 , 0.0 , 0.0 , 

128.0 , 4513.33333333 , 3971.79487179 , 4333.33333333 , 4393.84615385 , 4211.28205128 , 4030.25641026 , 4191.28205128 , 4148.20512821 , 4265.64102564 , 4526.66666667 , 4360.0 , 3866.15384615 , 4374.87179487 , 4012.30769231 , 1722.0 , 1686.0 , 6.956 , 0.0 , 0.0 , 0.0 , 0.0 , 

0.0 , 4515.38461538 , 3970.76923077 , 4331.28205128 , 4393.84615385 , 4210.76923077 , 4027.17948718 , 4190.25641026 , 4147.69230769 , 4265.12820513 , 4526.66666667 , 4359.48717949 , 3868.20512821 , 4374.35897436 , 4011.79487179 , 1723.0 , 1686.0 , 6.964 , 0.0 , 0.0 , 0.0 , 0.0 , 

1.0 , 4514.87179487 , 3968.20512821 , 4333.33333333 , 4391.28205128 , 4209.23076923 , 4028.71794872 , 4191.79487179 , 4151.28205128 , 4266.66666667 , 4525.12820513 , 4360.0 , 3870.76923077 , 4373.84615385 , 4011.79487179 , 1723.0 , 1687.0 , 6.972 , 0.0 , 0.0 , 0.0 , 0.0 , 

2.0 , 4513.84615385 , 3969.74358974 , 4333.84615385 , 4391.28205128 , 4213.33333333 , 4031.79487179 , 4193.33333333 , 4150.25641026 , 4265.64102564 , 4523.58974359 , 4360.0 , 3865.64102564 , 4374.35897436 , 4011.79487179 , 1724.0 , 1687.0 , 6.979 , 0.0 , 0.0 , 0.0 , 0.0 , 

3.0 , 4508.20512821 , 3967.17948718 , 4333.84615385 , 4392.30769231 , 4217.43589744 , 4031.28205128 , 4194.87179487 , 4151.28205128 , 4265.64102564 , 4524.61538462 , 4360.0 , 3862.05128205 , 4375.8974359 , 4012.30769231 , 1724.0 , 1688.0 , 6.987 , 0.0 , 0.0 , 0.0 , 0.0 , 

4.0 , 4505.12820513 , 3965.12820513 , 4333.33333333 , 4390.76923077 , 4221.53846154 , 4034.35897436 , 4196.41025641 , 4153.33333333 , 4266.66666667 , 4525.64102564 , 4360.51282051 , 3860.51282051 , 4376.41025641 , 4012.82051282 , 1724.0 , 1687.0 , 6.995 , 0.0 , 0.0 , 0.0 , 0.0 , 

5.0 , 4507.17948718 , 3966.66666667 , 4334.35897436 , 4390.76923077 , 4225.12820513 , 4036.41025641 , 4198.46153846 , 4151.79487179 , 4265.64102564 , 4524.61538462 , 4360.0 , 3860.0 , 4374.35897436 , 4012.30769231 , 1723.0 , 1687.0 , 7.003 , 0.0 , 0.0 , 0.0 , 0.0 , 

6.0 , 4510.25641026 , 3968.71794872 , 4336.92307692 , 4392.82051282 , 4220.51282051 , 4034.87179487 , 4197.43589744 , 4150.76923077 , 4264.61538462 , 4525.64102564 , 4358.97435897 , 3861.02564103 , 4373.33333333 , 4011.79487179 , 1725.0 , 1685.0 , 7.011 , 0.0 , 0.0 , 0.0 , 0.0 , 

7.0 , 4514.35897436 , 3970.25641026 , 4333.84615385 , 4390.25641026 , 4208.20512821 , 4032.30769231 , 4192.30769231 , 4153.33333333 , 4264.61538462 , 4527.69230769 , 4357.94871795 , 3863.58974359 , 4375.38461538 , 4010.76923077 , 1722.0 , 1685.0 , 7.019 , 0.0 , 0.0 , 0.0 , 0.0 , 

8.0 , 4516.41025641 , 3971.79487179 , 4331.79487179 , 4389.74358974 , 4203.07692308 , 4028.20512821 , 4189.74358974 , 4153.84615385 , 4263.07692308 , 4525.64102564 , 4358.46153846 , 3864.61538462 , 4376.41025641 , 4008.20512821 , 1722.0 , 1685.0 , 7.025 , 0.0 , 0.0 , 0.0 , 0.0 , 

9.0 , 4512.82051282 , 3970.76923077 , 4332.30769231 , 4393.33333333 , 4206.66666667 , 4028.71794872 , 4191.79487179 , 4153.33333333 , 4265.12820513 , 4523.58974359 , 4360.0 , 3860.51282051 , 4374.35897436 , 4006.15384615 , 1721.0 , 1683.0 , 7.033 , 0.0 , 0.0 , 0.0 , 0.0 , 

10.0 , 4507.17948718 , 3965.12820513 , 4336.41025641 , 4392.82051282 , 4212.30769231 , 4030.76923077 , 4194.87179487 , 4153.84615385 , 4268.20512821 , 4525.64102564 , 4358.46153846 , 3861.53846154 , 4373.33333333 , 4007.69230769 , 1722.0 , 1684.0 , 7.042 , 0.0 , 0.0 , 0.0 , 0.0 , 

11.0 , 4509.74358974 , 3969.23076923 , 4335.38461538 , 4390.25641026 , 4222.05128205 , 4033.84615385 , 4193.84615385 , 4150.76923077 , 4266.15384615 , 4526.66666667 , 4356.92307692 , 3861.53846154 , 4373.33333333 , 4010.25641026 , 1722.0 , 1683.0 , 7.049 , 0.0 , 0.0 , 0.0 , 0.0 , 

12.0 , 4511.79487179 , 3967.69230769 , 4336.41025641 , 4394.35897436 , 4225.64102564 , 4033.84615385 , 4195.8974359 , 4149.23076923 , 4264.61538462 , 4526.15384615 , 4361.53846154 , 3868.20512821 , 4373.33333333 , 4011.28205128 , 1721.0 , 1686.0 , 7.058 , 0.0 , 0.0 , 0.0 , 0.0 , 

13.0 , 4504.61538462 , 3962.05128205 , 4335.8974359 , 4395.38461538 , 4224.1025641 , 4039.48717949 , 4198.97435897 , 4151.28205128 , 4265.64102564 , 4526.66666667 , 4362.05128205 , 3865.12820513 , 4373.84615385 , 4009.23076923 , 1721.0 , 1686.0 , 7.065 , 0.0 , 0.0 , 0.0 , 0.0 , 

14.0 , 4498.46153846 , 3961.53846154 , 4336.92307692 , 4388.71794872 , 4220.51282051 , 4038.46153846 , 4198.97435897 , 4155.38461538 , 4266.15384615 , 4526.66666667 , 4355.8974359 , 3863.58974359 , 4375.38461538 , 4008.71794872 , 1722.0 , 1687.0 , 7.073 , 0.0 , 0.0 , 0.0 , 0.0 , 

15.0 , 4508.20512821 , 3969.74358974 , 4334.87179487 , 4386.15384615 , 4216.41025641 , 4034.87179487 , 4194.35897436 , 4152.30769231 , 4265.12820513 , 4526.15384615 , 4356.41025641 , 3864.1025641 , 4375.38461538 , 4009.23076923 , 1723.0 , 1687.0 , 7.081 , 0.0 , 0.0 , 0.0 , 0.0 , 

16.0 , 4516.41025641 , 3970.25641026 , 4335.38461538 , 4389.23076923 , 4210.76923077 , 4031.79487179 , 4191.28205128 , 4147.69230769 , 4265.12820513 , 4525.64102564 , 4361.53846154 , 3866.66666667 , 4372.82051282 , 4009.74358974 , 1722.0 , 1689.0 , 7.088 , 0.0 , 0.0 , 0.0 , 0.0 , 

17.0 , 4514.35897436 , 3971.79487179 , 4334.35897436 , 4388.71794872 , 4210.25641026 , 4034.87179487 , 4191.79487179 , 4148.20512821 , 4267.17948718 , 4526.66666667 , 4360.0 , 3861.02564103 , 4371.79487179 , 4010.76923077 , 1724.0 , 1689.0 , 7.096 , 0.0 , 0.0 , 0.0 , 0.0 , 

18.0 , 4512.30769231 , 3969.74358974 , 4332.82051282 , 4387.17948718 , 4207.69230769 , 4030.25641026 , 4194.35897436 , 4153.84615385 , 4267.69230769 , 4526.66666667 , 4360.51282051 , 3864.61538462 , 4373.33333333 , 4011.79487179 , 1721.0 , 1689.0 , 7.105 , 0.0 , 0.0 , 0.0 , 0.0 , 

19.0 , 4515.38461538 , 3971.79487179 , 4332.82051282 , 4388.20512821 , 4206.15384615 , 4029.74358974 , 4194.35897436 , 4154.87179487 , 4265.64102564 , 4526.66666667 , 4362.05128205 , 3867.17948718 , 4372.82051282 , 4011.79487179 , 1721.0 , 1689.0 , 7.112 , 0.0 , 0.0 , 0.0 , 0.0 , 

20.0 , 4509.74358974 , 3972.30769231 , 4336.92307692 , 4390.76923077 , 4213.84615385 , 4038.46153846 , 4193.33333333 , 4150.76923077 , 4265.64102564 , 4526.15384615 , 4358.46153846 , 3859.48717949 , 4372.82051282 , 4009.74358974 , 1720.0 , 1687.0 , 7.12 , 0.0 , 0.0 , 0.0 , 0.0 , 

21.0 , 4505.64102564 , 3969.74358974 , 4338.46153846 , 4391.28205128 , 4220.51282051 , 4043.07692308 , 4193.33333333 , 4147.69230769 , 4265.64102564 , 4526.66666667 , 4357.94871795 , 3858.46153846 , 4374.87179487 , 4007.69230769 , 1721.0 , 1687.0 , 7.128 , 0.0 , 0.0 , 0.0 , 0.0 , 

22.0 , 4513.33333333 , 3971.28205128 , 4335.8974359 , 4390.76923077 , 4221.02564103 , 4035.8974359 , 4195.38461538 , 4147.17948718 , 4265.64102564 , 4527.17948718 , 4360.0 , 3864.1025641 , 4375.38461538 , 4009.74358974 , 1723.0 , 1684.0 , 7.136 , 0.0 , 0.0 , 0.0 , 0.0 , 

23.0 , 4515.38461538 , 3971.79487179 , 4335.8974359 , 4392.82051282 , 4220.0 , 4031.28205128 , 4196.92307692 , 4147.17948718 , 4266.15384615 , 4525.12820513 , 4359.48717949 , 3864.1025641 , 4374.87179487 , 4011.28205128 , 1722.0 , 1684.0 , 7.144 , 0.0 , 0.0 , 0.0 , 0.0 , 

24.0 , 4505.64102564 , 3965.64102564 , 4334.35897436 , 4394.87179487 , 4219.48717949 , 4035.8974359 , 4195.38461538 , 4148.20512821 , 4266.15384615 , 4523.58974359 , 4357.43589744 , 3858.97435897 , 4374.35897436 , 4008.71794872 , 1722.0 , 1684.0 , 7.151 , 0.0 , 0.0 , 0.0 , 0.0 , 

25.0 , 4501.53846154 , 3960.0 , 4334.87179487 , 4392.82051282 , 4219.48717949 , 4036.41025641 , 4194.35897436 , 4151.28205128 , 4265.64102564 , 4525.64102564 , 4358.46153846 , 3861.53846154 , 4373.33333333 , 4007.69230769 , 1721.0 , 1683.0 , 7.159 , 0.0 , 0.0 , 0.0 , 0.0 , 

26.0 , 4507.69230769 , 3962.05128205 , 4332.82051282 , 4389.74358974 , 4222.05128205 , 4035.8974359 , 4194.35897436 , 4152.82051282 , 4265.64102564 , 4526.66666667 , 4360.0 , 3861.53846154 , 4373.84615385 , 4008.20512821 , 1723.0 , 1684.0 , 7.167 , 0.0 , 0.0 , 0.0 , 0.0 , 

27.0 , 4507.69230769 , 3962.56410256 , 4332.30769231 , 4391.28205128 , 4220.51282051 , 4034.87179487 , 4195.38461538 , 4153.33333333 , 4265.64102564 , 4524.61538462 , 4359.48717949 , 3864.1025641 , 4375.8974359 , 4008.71794872 , 1724.0 , 1684.0 , 7.175 , 0.0 , 0.0 , 0.0 , 0.0 , 

28.0 , 4510.25641026 , 3970.76923077 , 4332.82051282 , 4391.79487179 , 4215.38461538 , 4035.38461538 , 4194.35897436 , 4152.30769231 , 4264.61538462 , 4524.61538462 , 4358.97435897 , 3862.56410256 , 4375.8974359 , 4008.71794872 , 1724.0 , 1685.0 , 7.183 , 0.0 , 0.0 , 0.0 , 0.0 , 

29.0 , 4513.84615385 , 3976.41025641 , 4337.94871795 , 4390.76923077 , 4211.28205128 , 4034.35897436 , 4194.87179487 , 4150.76923077 , 4266.15384615 , 4525.64102564 , 4359.48717949 , 3857.94871795 , 4373.84615385 , 4009.23076923 , 1723.0 , 1687.0 , 7.191 , 0.0 , 0.0 , 0.0 , 0.0 , 

30.0 , 4514.87179487 , 3977.94871795 , 4336.41025641 , 4390.76923077 , 4212.30769231 , 4034.35897436 , 4194.35897436 , 4147.69230769 , 4266.66666667 , 4525.64102564 , 4359.48717949 , 3851.79487179 , 4373.84615385 , 4010.76923077 , 1723.0 , 1689.0 , 7.198 , 0.0 , 0.0 , 0.0 , 0.0 , 

31.0 , 4512.30769231 , 3971.28205128 , 4335.38461538 , 4392.30769231 , 4213.84615385 , 4030.25641026 , 4195.8974359 , 4148.71794872 , 4263.58974359 , 4525.12820513 , 4360.51282051 , 3861.53846154 , 4375.8974359 , 4012.30769231 , 1723.0 , 1688.0 , 7.206 , 0.0 , 0.0 , 0.0 , 0.0 , 

32.0 , 4511.28205128 , 3969.74358974 , 4334.35897436 , 4392.82051282 , 4215.8974359 , 4033.84615385 , 4196.41025641 , 4149.74358974 , 4263.07692308 , 4524.1025641 , 4362.05128205 , 3865.64102564 , 4375.38461538 , 4009.74358974 , 1723.0 , 1690.0 , 7.214 , 0.0 , 0.0 , 0.0 , 0.0 , 

33.0 , 4507.17948718 , 3968.71794872 , 4334.35897436 , 4390.25641026 , 4219.48717949 , 4038.97435897 , 4193.33333333 , 4149.74358974 , 4265.12820513 , 4524.61538462 , 4358.46153846 , 3861.02564103 , 4374.35897436 , 4010.25641026 , 1723.0 , 1689.0 , 7.222 , 0.0 , 0.0 , 0.0 , 0.0 , 

34.0 , 4509.23076923 , 3970.25641026 , 4333.84615385 , 4388.20512821 , 4217.94871795 , 4037.94871795 , 4192.30769231 , 4146.66666667 , 4266.15384615 , 4528.20512821 , 4355.38461538 , 3857.94871795 , 4375.38461538 , 4012.82051282 , 1720.0 , 1690.0 , 7.229 , 0.0 , 0.0 , 0.0 , 0.0 , 

35.0 , 4512.82051282 , 3971.28205128 , 4336.41025641 , 4388.71794872 , 4208.71794872 , 4034.35897436 , 4195.8974359 , 4150.25641026 , 4264.1025641 , 4529.74358974 , 4359.48717949 , 3862.05128205 , 4376.41025641 , 4010.76923077 , 1720.0 , 1688.0 , 7.236 , 0.0 , 0.0 , 0.0 , 0.0 , 

36.0 , 4512.82051282 , 3972.82051282 , 4335.38461538 , 4390.25641026 , 4207.69230769 , 4035.8974359 , 4194.87179487 , 4155.38461538 , 4263.07692308 , 4526.15384615 , 4361.02564103 , 3861.53846154 , 4375.38461538 , 4008.20512821 , 1719.0 , 1687.0 , 7.245 , 0.0 , 0.0 , 0.0 , 0.0 , 

37.0 , 4512.82051282 , 3969.74358974 , 4332.82051282 , 4392.82051282 , 4213.84615385 , 4030.25641026 , 4193.84615385 , 4150.76923077 , 4263.07692308 , 4523.58974359 , 4361.53846154 , 3865.12820513 , 4375.38461538 , 4009.74358974 , 1721.0 , 1686.0 , 7.253 , 0.0 , 0.0 , 0.0 , 0.0 , 

38.0 , 4514.35897436 , 3966.15384615 , 4334.35897436 , 4394.35897436 , 4217.43589744 , 4028.71794872 , 4196.92307692 , 4146.66666667 , 4263.58974359 , 4526.15384615 , 4363.58974359 , 3870.76923077 , 4375.8974359 , 4011.79487179 , 1721.0 , 1684.0 , 7.261 , 0.0 , 0.0 , 0.0 , 0.0 , 

39.0 , 4509.23076923 , 3965.64102564 , 4332.30769231 , 4392.82051282 , 4217.94871795 , 4035.38461538 , 4194.87179487 , 4152.30769231 , 4265.12820513 , 4526.66666667 , 4358.97435897 , 3867.69230769 , 4374.87179487 , 4008.71794872 , 1724.0 , 1684.0 , 7.269 , 0.0 , 0.0 , 0.0 , 0.0 , 

40.0 , 4506.15384615 , 3966.66666667 , 4332.82051282 , 4389.23076923 , 4212.30769231 , 4032.82051282 , 4191.28205128 , 4155.8974359 , 4266.15384615 , 4524.1025641 , 4354.87179487 , 3865.12820513 , 4374.87179487 , 4006.66666667 , 1723.0 , 1683.0 , 7.277 , 0.0 , 0.0 , 0.0 , 0.0 , 

41.0 , 4512.82051282 , 3970.76923077 , 4334.87179487 , 4390.25641026 , 4210.25641026 , 4030.25641026 , 4193.33333333 , 4150.25641026 , 4264.61538462 , 4524.1025641 , 4356.41025641 , 3860.51282051 , 4375.38461538 , 4009.74358974 , 1725.0 , 1684.0 , 7.284 , 0.0 , 0.0 , 0.0 , 0.0 , 

