Counter	AF3	F7	F3	FC5	T7	P7	O1	O2	P8	T8	FC6	F4	F8	AF4	GyroX	GyroY	Timestamp	FUNC_ID	FUNC_VALUE	MARKER	SYNC_SIGNAL	CMS_Q	DRL_Q	AF3_Q	F7_Q	F3_Q	FC5_Q	T7_Q	P7_Q	O1_Q	O2_Q	P8_Q	T8_Q	FC6_Q	F4_Q	F8_Q	AF4_Q
63.000000	4353.846154	4390.769231	4403.589744	3714.358974	4376.923077	4610.256410	4629.230769	4522.564103	4021.538462	4102.051282	4512.307692	4440.512821	4266.153846	3953.333333	1720.000000	1673.000000	21.756000	0.000000	0.000000	0.000000	0.000000	0	0	0	0	0	0	0	0	0	0	0	0	0	0	0	0
64.000000	4355.897436	4388.717949	4402.564103	3714.358974	4378.461538	4611.794872	4628.717949	4522.051282	4022.051282	4106.153846	4512.307692	4441.538462	4267.692308	3955.384615	1719.000000	1672.000000	21.776000	0.000000	0.000000	0.000000	0.000000	0	0	0	0	0	0	0	0	0	0	0	0	0	0	0	0
65.000000	4358.461538	4388.717949	4409.230769	3714.358974	4377.435897	4613.333333	4627.179487	4523.589744	4022.051282	4101.538462	4514.871795	4442.564103	4269.743590	3954.871795	1721.000000	1673.000000	21.776000	0.000000	0.000000	0.000000	0.000000	0	0	0	0	0	0	0	0	0	0	0	0	0	0	0	0
66.000000	4354.358974	4390.256410	4411.282051	3715.384615	4373.846154	4609.230769	4626.153846	4526.153846	4022.051282	4101.025641	4514.871795	4442.051282	4268.205128	3955.897436	1722.000000	1672.000000	21.792000	0.000000	0.000000	0.000000	0.000000	0	0	0	0	0	0	0	0	0	0	0	0	0	0	0	0
67.000000	4351.282051	4390.769231	4405.128205	3713.333333	4373.333333	4607.179487	4627.692308	4526.153846	4023.589744	4104.102564	4513.333333	4441.025641	4266.153846	3958.461538	1723.000000	1672.000000	21.792000	0.000000	0.000000	0.000000	0.000000	0	0	0	0	0	0	0	0	0	0	0	0	0	0	0	0
68.000000	4354.871795	4389.743590	4404.102564	3710.769231	4375.384615	4608.205128	4627.692308	4524.102564	4024.102564	4100.512821	4514.871795	4443.076923	4269.743590	3958.461538	1723.000000	1671.000000	21.807000	0.000000	0.000000	0.000000	0.000000	0	0	0	0	0	0	0	0	0	0	0	0	0	0	0	0
69.000000	4354.871795	4389.230769	4405.641026	3710.769231	4375.384615	4609.230769	4627.179487	4523.589744	4024.102564	4099.487179	4516.410256	4445.128205	4271.794872	3955.897436	1724.000000	1671.000000	21.807000	0.000000	0.000000	0.000000	0.000000	0	0	0	0	0	0	0	0	0	0	0	0	0	0	0	0
70.000000	4354.871795	4389.743590	4402.564103	3713.333333	4374.358974	4610.769231	4628.205128	4524.615385	4024.102564	4105.641026	4516.923077	4442.564103	4270.256410	3955.384615	1724.000000	1671.000000	21.839000	0.000000	0.000000	0.000000	0.000000	0	0	0	0	0	0	0	0	0	0	0	0	0	0	0	0
71.000000	4356.923077	4388.717949	4401.538462	3713.333333	4375.384615	4611.282051	4626.153846	4523.589744	4022.564103	4105.128205	4516.410256	4443.076923	4270.256410	3957.435897	1722.000000	1672.000000	21.839000	0.000000	0.000000	0.000000	0.000000	0	0	0	0	0	0	0	0	0	0	0	0	0	0	0	0
72.000000	4357.948718	4388.717949	4403.589744	3712.820513	4374.358974	4609.743590	4622.051282	4522.564103	4022.564103	4101.025641	4514.871795	4446.666667	4272.307692	3959.487179	1720.000000	1672.000000	21.839000	0.000000	0.000000	0.000000	0.000000	0	0	0	0	0	0	0	0	0	0	0	0	0	0	0	0
73.000000	4356.923077	4391.282051	4403.589744	3711.794872	4372.307692	4607.179487	4620.512821	4523.076923	4023.076923	4104.102564	4513.846154	4444.615385	4272.307692	3959.487179	1719.000000	1673.000000	21.839000	0.000000	0.000000	0.000000	0.000000	0	0	0	0	0	0	0	0	0	0	0	0	0	0	0	0
74.000000	4354.871795	4391.794872	4404.615385	3711.282051	4373.846154	4607.692308	4623.076923	4526.153846	4023.076923	4106.666667	4515.384615	4442.564103	4272.307692	3957.435897	1718.000000	1674.000000	21.854000	0.000000	0.000000	0.000000	0.000000	0	0	0	0	0	0	0	0	0	0	0	0	0	0	0	0
75.000000	4353.333333	4389.230769	4405.641026	3710.769231	4375.897436	4610.769231	4624.615385	4526.666667	4024.615385	4102.564103	4514.871795	4443.589744	4270.769231	3956.410256	1718.000000	1675.000000	21.854000	0.000000	0.000000	0.000000	0.000000	0	0	0	0	0	0	0	0	0	0	0	0	0	0	0	0
76.000000	4353.333333	4389.230769	4406.153846	3710.769231	4374.871795	4611.282051	4623.589744	4524.102564	4025.641026	4099.487179	4514.358974	4443.589744	4269.743590	3957.948718	1716.000000	1677.000000	21.870000	0.000000	0.000000	0.000000	0.000000	0	0	0	0	0	0	0	0	0	0	0	0	0	0	0	0
77.000000	4354.871795	4391.282051	4405.641026	3712.820513	4373.333333	4610.256410	4622.564103	4527.179487	4023.076923	4102.564103	4517.435897	4444.102564	4273.333333	3960.512821	1716.000000	1678.000000	21.870000	0.000000	0.000000	0.000000	0.000000	0	0	0	0	0	0	0	0	0	0	0	0	0	0	0	0
78.000000	4355.384615	4390.256410	4405.128205	3712.820513	4373.333333	4609.743590	4622.564103	4531.282051	4023.076923	4102.564103	4516.410256	4445.128205	4273.846154	3958.461538	1714.000000	1679.000000	21.886000	0.000000	0.000000	0.000000	0.000000	0	0	0	0	0	0	0	0	0	0	0	0	0	0	0	0
79.000000	4355.897436	4388.717949	4404.615385	3712.307692	4373.333333	4609.743590	4622.564103	4527.179487	4024.615385	4101.538462	4514.871795	4444.102564	4270.769231	3954.871795	1712.000000	1683.000000	21.890000	0.000000	0.000000	0.000000	0.000000	0	0	0	0	0	0	0	0	0	0	0	0	0	0	0	0
80.000000	4356.410256	4389.743590	4404.615385	3712.820513	4373.333333	4609.743590	4624.102564	4523.076923	4022.564103	4103.589744	4515.897436	4441.538462	4270.256410	3953.333333	1712.000000	1682.000000	21.890000	0.000000	0.000000	0.000000	0.000000	0	0	0	0	0	0	0	0	0	0	0	0	0	0	0	0
81.000000	4357.948718	4391.282051	4405.641026	3713.846154	4374.871795	4609.230769	4626.153846	4526.153846	4022.564103	4104.102564	4515.897436	4442.564103	4271.282051	3957.948718	1708.000000	1686.000000	21.906000	0.000000	0.000000	0.000000	0.000000	0	0	0	0	0	0	0	0	0	0	0	0	0	0	0	0
82.000000	4358.461538	4389.230769	4405.128205	3710.769231	4376.410256	4607.692308	4625.641026	4524.102564	4025.641026	4103.076923	4514.358974	4443.589744	4270.769231	3956.923077	1708.000000	1687.000000	21.906000	0.000000	0.000000	0.000000	0.000000	0	0	0	0	0	0	0	0	0	0	0	0	0	0	0	0
83.000000	4357.435897	4387.692308	4403.076923	3707.692308	4376.410256	4608.717949	4623.589744	4523.076923	4024.102564	4104.102564	4513.846154	4442.051282	4269.743590	3953.333333	1706.000000	1690.000000	21.921000	0.000000	0.000000	0.000000	0.000000	0	0	0	0	0	0	0	0	0	0	0	0	0	0	0	0
84.000000	4355.384615	4390.256410	4407.179487	3709.230769	4375.384615	4611.794872	4622.051282	4529.743590	4021.538462	4104.615385	4514.358974	4442.051282	4269.230769	3954.358974	1706.000000	1692.000000	21.921000	0.000000	0.000000	0.000000	0.000000	0	0	0	0	0	0	0	0	0	0	0	0	0	0	0	0
85.000000	4356.410256	4391.794872	4410.256410	3711.794872	4374.871795	4609.230769	4623.589744	4530.256410	4024.102564	4102.051282	4515.384615	4446.666667	4271.282051	3959.487179	1705.000000	1693.000000	21.937000	0.000000	0.000000	0.000000	0.000000	0	0	0	0	0	0	0	0	0	0	0	0	0	0	0	0
86.000000	4358.461538	4388.717949	4405.641026	3709.230769	4374.871795	4606.153846	4624.615385	4528.717949	4026.666667	4100.000000	4515.384615	4449.230769	4271.282051	3961.538462	1704.000000	1694.000000	21.937000	0.000000	0.000000	0.000000	0.000000	0	0	0	0	0	0	0	0	0	0	0	0	0	0	0	0
87.000000	4356.923077	4388.717949	4402.051282	3708.717949	4375.384615	4610.769231	4622.051282	4528.205128	4023.589744	4101.538462	4514.358974	4444.615385	4270.256410	3959.487179	1703.000000	1694.000000	21.952000	0.000000	0.000000	0.000000	0.000000	0	0	0	0	0	0	0	0	0	0	0	0	0	0	0	0
88.000000	4355.384615	4391.282051	4404.615385	3711.282051	4373.846154	4612.820513	4620.000000	4525.128205	4023.076923	4102.564103	4515.897436	4442.051282	4271.794872	3957.435897	1703.000000	1693.000000	21.952000	0.000000	0.000000	0.000000	0.000000	0	0	0	0	0	0	0	0	0	0	0	0	0	0	0	0
89.000000	4356.923077	4389.743590	4405.128205	3711.282051	4373.333333	4610.256410	4623.589744	4523.589744	4025.641026	4101.025641	4515.384615	4442.564103	4271.282051	3956.923077	1702.000000	1691.000000	21.968000	0.000000	0.000000	0.000000	0.000000	0	0	0	0	0	0	0	0	0	0	0	0	0	0	0	0
90.000000	4357.948718	4388.205128	4403.076923	3709.743590	4375.384615	4610.256410	4626.153846	4525.641026	4024.102564	4100.512821	4513.333333	4442.051282	4269.743590	3957.435897	1701.000000	1691.000000	21.968000	0.000000	0.000000	0.000000	0.000000	0	0	0	0	0	0	0	0	0	0	0	0	0	0	0	0
91.000000	4356.410256	4389.230769	4403.589744	3709.230769	4375.897436	4610.256410	4623.589744	4525.128205	4023.589744	4102.564103	4515.897436	4444.102564	4269.230769	3956.410256	1701.000000	1688.000000	21.984000	0.000000	0.000000	0.000000	0.000000	0	0	0	0	0	0	0	0	0	0	0	0	0	0	0	0
92.000000	4357.435897	4388.717949	4405.641026	3711.282051	4373.846154	4607.692308	4622.051282	4524.102564	4026.153846	4101.025641	4516.923077	4447.692308	4271.282051	3958.974359	1701.000000	1687.000000	21.984000	0.000000	0.000000	0.000000	0.000000	0	0	0	0	0	0	0	0	0	0	0	0	0	0	0	0
93.000000	4359.487179	4388.717949	4404.615385	3712.307692	4375.384615	4608.205128	4622.051282	4526.153846	4025.128205	4098.461538	4513.846154	4447.692308	4273.846154	3961.025641	1702.000000	1685.000000	22.004000	0.000000	0.000000	0.000000	0.000000	0	0	0	0	0	0	0	0	0	0	0	0	0	0	0	0
94.000000	4360.000000	4390.769231	4403.589744	3710.769231	4375.384615	4609.743590	4620.512821	4525.128205	4023.076923	4102.051282	4514.358974	4448.205128	4275.384615	3961.538462	1701.000000	1683.000000	22.004000	0.000000	0.000000	0.000000	0.000000	0	0	0	0	0	0	0	0	0	0	0	0	0	0	0	0
95.000000	4359.487179	4390.256410	4405.128205	3710.769231	4371.794872	4609.230769	4621.025641	4524.615385	4024.615385	4105.641026	4517.435897	4449.743590	4273.846154	3964.615385	1703.000000	1681.000000	22.019000	0.000000	0.000000	0.000000	0.000000	0	0	0	0	0	0	0	0	0	0	0	0	0	0	0	0
96.000000	4360.512821	4390.256410	4405.641026	3712.307692	4371.282051	4606.666667	4617.948718	4525.641026	4025.128205	4104.615385	4517.948718	4452.307692	4275.897436	3967.692308	1703.000000	1678.000000	22.019000	0.000000	0.000000	0.000000	0.000000	0	0	0	0	0	0	0	0	0	0	0	0	0	0	0	0
97.000000	4361.538462	4393.333333	4403.076923	3709.743590	4370.769231	4606.666667	4612.307692	4525.128205	4024.102564	4103.076923	4516.410256	4456.923077	4278.974359	3967.179487	1704.000000	1677.000000	22.035000	0.000000	0.000000	0.000000	0.000000	0	0	0	0	0	0	0	0	0	0	0	0	0	0	0	0
98.000000	4362.564103	4394.871795	4402.564103	3707.179487	4366.153846	4607.179487	4611.794872	4524.615385	4023.076923	4105.128205	4517.948718	4457.948718	4278.461538	3968.717949	1705.000000	1675.000000	22.035000	0.000000	0.000000	0.000000	0.000000	0	0	0	0	0	0	0	0	0	0	0	0	0	0	0	0
99.000000	4362.564103	4392.307692	4402.051282	3707.692308	4365.128205	4606.153846	4614.358974	4524.102564	4023.589744	4103.589744	4523.076923	4455.384615	4278.461538	3971.794872	1705.000000	1673.000000	22.051000	0.000000	0.000000	0.000000	0.000000	0	0	0	0	0	0	0	0	0	0	0	0	0	0	0	0
100.000000	4363.589744	4392.307692	4400.512821	3705.128205	4366.666667	4604.102564	4611.794872	4524.102564	4026.666667	4101.025641	4523.076923	4458.974359	4282.051282	3970.256410	1706.000000	1672.000000	22.051000	0.000000	0.000000	0.000000	0.000000	0	0	0	0	0	0	0	0	0	0	0	0	0	0	0	0
101.000000	4365.128205	4395.384615	4401.025641	3704.615385	4364.615385	4603.589744	4609.230769	4524.615385	4027.179487	4103.589744	4520.000000	4463.589744	4281.025641	3970.256410	1708.000000	1672.000000	22.066000	0.000000	0.000000	0.000000	0.000000	0	0	0	0	0	0	0	0	0	0	0	0	0	0	0	0
102.000000	4365.128205	4395.384615	4400.512821	3705.128205	4364.615385	4606.153846	4609.743590	4524.102564	4025.128205	4106.666667	4518.974359	4461.538462	4277.948718	3975.897436	1711.000000	1669.000000	22.066000	0.000000	0.000000	0.000000	0.000000	0	0	0	0	0	0	0	0	0	0	0	0	0	0	0	0
103.000000	4363.589744	4394.358974	4400.000000	3706.153846	4365.641026	4609.230769	4610.256410	4523.076923	4026.666667	4105.641026	4521.538462	4461.025641	4279.487179	3977.435897	1712.000000	1670.000000	22.082000	0.000000	0.000000	0.000000	0.000000	0	0	0	0	0	0	0	0	0	0	0	0	0	0	0	0
104.000000	4364.102564	4393.846154	4400.000000	3705.128205	4363.076923	4609.230769	4609.230769	4526.153846	4028.205128	4101.538462	4524.102564	4462.051282	4282.051282	3974.871795	1716.000000	1669.000000	22.082000	0.000000	0.000000	0.000000	0.000000	0	0	0	0	0	0	0	0	0	0	0	0	0	0	0	0
105.000000	4365.128205	4393.846154	4400.512821	3706.666667	4361.538462	4606.153846	4607.179487	4526.153846	4026.153846	4101.025641	4523.076923	4458.461538	4283.076923	3973.846154	1715.000000	1669.000000	22.097000	0.000000	0.000000	0.000000	0.000000	0	0	0	0	0	0	0	0	0	0	0	0	0	0	0	0
106.000000	4364.102564	4393.846154	4400.000000	3706.666667	4364.102564	4606.666667	4603.589744	4523.076923	4025.128205	4105.641026	4518.974359	4460.000000	4286.666667	3976.410256	1715.000000	1669.000000	22.097000	0.000000	0.000000	0.000000	0.000000	0	0	0	0	0	0	0	0	0	0	0	0	0	0	0	0
107.000000	4365.128205	4394.358974	4400.000000	3706.666667	4364.102564	4606.666667	4602.051282	4526.666667	4026.153846	4104.615385	4519.487179	4467.179487	4287.179487	3980.000000	1713.000000	1667.000000	22.113000	0.000000	0.000000	0.000000	0.000000	0	0	0	0	0	0	0	0	0	0	0	0	0	0	0	0
108.000000	4368.205128	4396.410256	4401.538462	3707.179487	4362.051282	4606.153846	4602.564103	4531.282051	4026.153846	4101.538462	4521.538462	4469.743590	4284.615385	3980.000000	1711.000000	1669.000000	22.117000	0.000000	0.000000	0.000000	0.000000	0	0	0	0	0	0	0	0	0	0	0	0	0	0	0	0
109.000000	4368.717949	4397.948718	4401.538462	3706.153846	4360.512821	4606.153846	4601.538462	4526.666667	4027.692308	4103.076923	4520.512821	4468.717949	4288.205128	3979.487179	1710.000000	1668.000000	22.117000	0.000000	0.000000	0.000000	0.000000	0	0	0	0	0	0	0	0	0	0	0	0	0	0	0	0
110.000000	4365.128205	4397.948718	4400.000000	3707.692308	4359.487179	4603.076923	4601.538462	4521.538462	4029.743590	4104.102564	4521.538462	4469.230769	4290.769231	3982.564103	1707.000000	1669.000000	22.133000	0.000000	0.000000	0.000000	0.000000	0	0	0	0	0	0	0	0	0	0	0	0	0	0	0	0
111.000000	4366.153846	4395.384615	4398.461538	3706.666667	4362.051282	4603.589744	4603.589744	4528.717949	4028.205128	4102.051282	4525.641026	4470.256410	4286.666667	3984.615385	1704.000000	1669.000000	22.133000	0.000000	0.000000	0.000000	0.000000	0	0	0	0	0	0	0	0	0	0	0	0	0	0	0	0
112.000000	4367.692308	4393.846154	4398.974359	3702.564103	4364.615385	4606.153846	4605.128205	4532.307692	4029.230769	4102.564103	4525.641026	4470.769231	4285.128205	3980.512821	1704.000000	1671.000000	22.149000	0.000000	0.000000	0.000000	0.000000	0	0	0	0	0	0	0	0	0	0	0	0	0	0	0	0
113.000000	4365.641026	4394.871795	4399.487179	3703.076923	4361.538462	4606.153846	4604.615385	4530.256410	4031.794872	4104.102564	4523.076923	4471.794872	4287.692308	3980.000000	1704.000000	1672.000000	22.149000	0.000000	0.000000	0.000000	0.000000	0	0	0	0	0	0	0	0	0	0	0	0	0	0	0	0
114.000000	4361.025641	4395.384615	4398.974359	3705.641026	4359.487179	4606.666667	4605.641026	4529.743590	4027.692308	4103.589744	4520.512821	4466.153846	4285.128205	3981.025641	1703.000000	1677.000000	22.164000	0.000000	0.000000	0.000000	0.000000	0	0	0	0	0	0	0	0	0	0	0	0	0	0	0	0
115.000000	4361.538462	4395.384615	4400.000000	3702.564103	4363.076923	4609.743590	4606.666667	4529.230769	4024.615385	4103.076923	4520.512821	4463.076923	4281.025641	3978.461538	1705.000000	1678.000000	22.164000	0.000000	0.000000	0.000000	0.000000	0	0	0	0	0	0	0	0	0	0	0	0	0	0	0	0
116.000000	4363.076923	4395.897436	4401.025641	3700.000000	4365.128205	4608.717949	4607.179487	4527.179487	4028.205128	4101.538462	4520.000000	4464.102564	4281.025641	3974.871795	1702.000000	1681.000000	22.180000	0.000000	0.000000	0.000000	0.000000	0	0	0	0	0	0	0	0	0	0	0	0	0	0	0	0
117.000000	4363.076923	4396.923077	4400.000000	3703.589744	4363.589744	4607.179487	4607.692308	4528.717949	4029.230769	4103.076923	4518.974359	4462.051282	4282.051282	3973.846154	1704.000000	1684.000000	22.180000	0.000000	0.000000	0.000000	0.000000	0	0	0	0	0	0	0	0	0	0	0	0	0	0	0	0
118.000000	4364.615385	4395.384615	4399.487179	3706.153846	4363.589744	4610.256410	4607.692308	4528.717949	4026.153846	4104.102564	4517.435897	4458.974359	4279.487179	3971.794872	1704.000000	1684.000000	22.196000	0.000000	0.000000	0.000000	0.000000	0	0	0	0	0	0	0	0	0	0	0	0	0	0	0	0
119.000000	4364.615385	4393.846154	4403.589744	3705.641026	4364.615385	4609.230769	4607.179487	4525.641026	4024.615385	4103.589744	4515.897436	4458.974359	4276.923077	3972.307692	1705.000000	1686.000000	22.196000	0.000000	0.000000	0.000000	0.000000	1	1	0	0	0	0	0	0	0	0	0	0	0	0	0	0
120.000000	4363.076923	4394.358974	4406.153846	3706.153846	4366.666667	4607.179487	4607.179487	4529.230769	4024.615385	4102.051282	4515.897436	4458.974359	4279.487179	3973.846154	1707.000000	1686.000000	22.211000	0.000000	0.000000	0.000000	0.000000	1	1	0	0	0	0	0	0	0	0	0	0	0	0	0	0
121.000000	4364.615385	4393.846154	4404.615385	3705.128205	4369.230769	4608.205128	4610.769231	4531.794872	4025.128205	4101.538462	4517.948718	4456.923077	4280.000000	3969.743590	1707.000000	1687.000000	22.211000	0.000000	0.000000	0.000000	0.000000	1	1	0	0	0	0	0	0	0	0	0	0	0	0	0	0
122.000000	4364.615385	4391.282051	4404.615385	3704.615385	4369.743590	4608.717949	4615.384615	4525.128205	4028.205128	4102.051282	4518.974359	4456.410256	4278.461538	3966.153846	1709.000000	1688.000000	22.232000	0.000000	0.000000	0.000000	0.000000	1	1	0	0	0	0	0	0	0	0	0	0	0	0	0	0
123.000000	4358.974359	4389.230769	4406.153846	3706.153846	4370.769231	4605.128205	4616.410256	4523.076923	4027.179487	4100.512821	4517.948718	4455.897436	4277.948718	3967.179487	1709.000000	1689.000000	22.232000	0.000000	0.000000	0.000000	0.000000	1	1	0	0	0	0	0	0	0	0	0	0	0	0	0	0
124.000000	4357.435897	4389.743590	4405.128205	3707.179487	4371.282051	4606.153846	4614.358974	4528.205128	4024.615385	4101.025641	4516.410256	4456.410256	4277.948718	3968.717949	1708.000000	1689.000000	22.247000	0.000000	0.000000	0.000000	0.000000	1	1	0	0	0	0	0	0	0	0	0	0	0	0	0	0
125.000000	4359.487179	4391.794872	4404.615385	3706.153846	4371.794872	4610.769231	4614.358974	4528.205128	4026.153846	4104.102564	4515.897436	4456.410256	4275.384615	3968.205128	1707.000000	1688.000000	22.247000	0.000000	0.000000	0.000000	0.000000	1	1	0	0	0	0	0	0	0	0	0	0	0	0	0	0
126.000000	4360.000000	4391.282051	4405.128205	3705.641026	4371.282051	4609.743590	4616.410256	4528.205128	4029.230769	4105.641026	4518.461538	4454.871795	4275.384615	3968.205128	1704.000000	1685.000000	22.263000	0.000000	0.000000	0.000000	0.000000	1	1	0	0	0	0	0	0	0	0	0	0	0	0	0	0
127.000000	4358.461538	4390.256410	4404.615385	3704.102564	4371.282051	4607.692308	4618.461538	4532.820513	4027.179487	4104.102564	4519.487179	4451.794872	4275.897436	3965.128205	1702.000000	1683.000000	22.263000	0.000000	0.000000	0.000000	0.000000	1	1	0	0	0	0	0	0	0	0	0	0	0	0	0	0
128.000000	4359.487179	4392.307692	4405.128205	3704.615385	4372.820513	4608.717949	4617.435897	4530.256410	4024.102564	4103.076923	4517.948718	4452.307692	4274.871795	3963.589744	1701.000000	1680.000000	22.279000	0.000000	0.000000	0.000000	0.000000	1	1	0	0	0	0	0	0	0	0	0	0	0	0	0	0
0.000000	4358.974359	4392.307692	4404.615385	3706.666667	4375.897436	4610.769231	4617.948718	4523.589744	4025.128205	4105.128205	4516.923077	4450.256410	4273.846154	3965.641026	1698.000000	1680.000000	22.279000	0.000000	0.000000	0.000000	0.000000	1	1	0	0	0	0	0	0	0	0	0	0	0	0	0	0
1.000000	4358.974359	4390.769231	4405.641026	3706.666667	4376.410256	4611.282051	4621.025641	4525.128205	4026.153846	4104.615385	4518.461538	4447.179487	4273.846154	3966.666667	1697.000000	1678.000000	22.294000	0.000000	0.000000	0.000000	0.000000	1	1	0	0	0	0	0	0	0	0	0	0	0	0	0	0
2.000000	4361.025641	4390.256410	4405.128205	3706.666667	4373.846154	4610.769231	4623.589744	4530.256410	4026.153846	4103.076923	4518.974359	4447.179487	4271.282051	3963.076923	1694.000000	1678.000000	22.294000	0.000000	0.000000	0.000000	0.000000	1	1	0	0	0	0	0	0	0	0	0	0	0	0	0	0
3.000000	4360.512821	4389.230769	4403.589744	3706.666667	4374.871795	4611.282051	4622.564103	4530.256410	4024.102564	4103.076923	4516.410256	4451.282051	4272.307692	3960.000000	1693.000000	1676.000000	22.310000	0.000000	0.000000	0.000000	0.000000	1	1	0	0	0	0	0	0	0	0	0	0	0	0	0	0
4.000000	4356.410256	4387.692308	4407.179487	3705.128205	4376.410256	4611.282051	4621.538462	4529.743590	4022.564103	4104.102564	4513.846154	4450.256410	4272.820513	3961.025641	1691.000000	1676.000000	22.310000	0.000000	0.000000	0.000000	0.000000	1	1	0	0	0	0	0	0	0	0	0	0	0	0	0	0
5.000000	4357.435897	4387.692308	4409.230769	3708.717949	4374.871795	4610.769231	4622.564103	4528.717949	4024.102564	4103.589744	4514.871795	4446.666667	4270.769231	3963.076923	1694.000000	1676.000000	22.325000	0.000000	0.000000	0.000000	0.000000	1	1	0	0	0	0	0	0	0	0	0	0	0	0	0	0
6.000000	4360.512821	4386.666667	4407.692308	3712.307692	4373.846154	4611.282051	4622.564103	4529.743590	4027.179487	4100.512821	4514.358974	4448.205128	4270.256410	3960.512821	1693.000000	1674.000000	22.325000	0.000000	0.000000	0.000000	0.000000	1	1	0	0	0	0	0	0	0	0	0	0	0	0	0	0
7.000000	4359.487179	4386.666667	4406.666667	3710.256410	4374.871795	4611.282051	4622.564103	4532.307692	4026.666667	4101.538462	4512.307692	4447.179487	4272.307692	3956.923077	1693.000000	1675.000000	22.341000	0.000000	0.000000	0.000000	0.000000	1	1	0	0	0	0	0	0	0	0	0	0	0	0	0	0
8.000000	4355.384615	4389.230769	4407.692308	3705.641026	4376.410256	4610.256410	4622.564103	4532.820513	4024.615385	4104.102564	4514.871795	4443.076923	4270.769231	3956.923077	1695.000000	1672.000000	22.346000	0.000000	0.000000	0.000000	0.000000	1	1	0	0	0	0	0	0	0	0	0	0	0	0	0	0
9.000000	4356.923077	4391.282051	4408.205128	3708.205128	4376.410256	4609.743590	4624.102564	4531.282051	4024.102564	4101.025641	4515.384615	4441.538462	4267.692308	3958.974359	1695.000000	1673.000000	22.346000	0.000000	0.000000	0.000000	0.000000	1	1	0	0	0	0	0	0	0	0	0	0	0	0	0	0
10.000000	4361.538462	4389.230769	4407.179487	3710.769231	4374.871795	4609.230769	4624.615385	4532.307692	4024.615385	4097.948718	4514.358974	4445.641026	4269.743590	3958.974359	1695.000000	1671.000000	22.361000	0.000000	0.000000	0.000000	0.000000	1	1	0	0	0	0	0	0	0	0	0	0	0	0	0	0
11.000000	4360.512821	4388.205128	4406.153846	3710.256410	4375.384615	4609.743590	4624.102564	4533.333333	4024.615385	4098.974359	4515.897436	4447.179487	4270.769231	3955.897436	1693.000000	1670.000000	22.361000	0.000000	0.000000	0.000000	0.000000	1	1	0	0	0	0	0	0	0	0	0	0	0	0	0	0
12.000000	4356.923077	4390.769231	4405.128205	3708.717949	4377.435897	4611.282051	4623.589744	4525.641026	4024.615385	4098.974359	4516.410256	4445.641026	4270.769231	3956.410256	1692.000000	1670.000000	22.377000	0.000000	0.000000	0.000000	0.000000	1	1	0	0	0	0	0	0	0	0	0	0	0	0	0	0
13.000000	4356.923077	4390.256410	4403.589744	3710.256410	4375.897436	4612.307692	4625.128205	4522.051282	4023.589744	4098.974359	4514.358974	4443.076923	4269.743590	3957.435897	1688.000000	1670.000000	22.377000	0.000000	0.000000	0.000000	0.000000	1	1	0	0	0	0	0	0	0	0	0	0	0	0	0	0
14.000000	4358.974359	4389.743590	4404.615385	3712.307692	4372.820513	4613.333333	4624.102564	4529.743590	4023.076923	4102.051282	4515.897436	4444.615385	4270.769231	3955.897436	1686.000000	1671.000000	22.392000	0.000000	0.000000	0.000000	0.000000	1	1	0	0	0	0	0	0	0	0	0	0	0	0	0	0
15.000000	4357.435897	4389.230769	4407.692308	3710.769231	4374.871795	4612.820513	4624.102564	4532.820513	4024.615385	4100.512821	4517.435897	4445.128205	4270.256410	3955.384615	1681.000000	1671.000000	22.392000	0.000000	0.000000	0.000000	0.000000	1	1	0	0	0	0	0	0	0	0	0	0	0	0	0	0
16.000000	4355.384615	4387.179487	4407.692308	3710.256410	4378.974359	4611.282051	4627.179487	4525.128205	4026.666667	4099.487179	4515.384615	4443.076923	4268.205128	3956.923077	1678.000000	1673.000000	22.408000	0.000000	0.000000	0.000000	0.000000	1	1	0	0	0	0	0	0	0	0	0	0	0	0	0	0
17.000000	4354.871795	4388.717949	4409.230769	3710.769231	4379.487179	4611.282051	4629.743590	4520.512821	4024.102564	4102.051282	4514.358974	4441.025641	4270.256410	3954.871795	1673.000000	1674.000000	22.408000	0.000000	0.000000	0.000000	0.000000	1	1	0	0	0	0	0	0	0	0	0	0	0	0	0	0
18.000000	4356.410256	4390.256410	4411.794872	3709.230769	4377.948718	4609.743590	4627.692308	4525.641026	4023.589744	4098.461538	4515.384615	4442.051282	4271.794872	3953.846154	1670.000000	1677.000000	22.424000	0.000000	0.000000	0.000000	0.000000	1	1	0	0	0	0	0	0	0	0	0	0	0	0	0	0
19.000000	4357.435897	4389.230769	4409.743590	3708.205128	4378.461538	4609.743590	4626.666667	4529.743590	4025.641026	4096.410256	4515.384615	4443.076923	4268.717949	3956.410256	1667.000000	1677.000000	22.424000	0.000000	0.000000	0.000000	0.000000	1	1	0	0	0	0	0	0	0	0	0	0	0	0	0	0
20.000000	4355.384615	4389.230769	4408.205128	3709.743590	4378.461538	4611.282051	4627.692308	4529.743590	4024.102564	4103.076923	4515.384615	4441.025641	4269.743590	3955.897436	1662.000000	1681.000000	22.439000	0.000000	0.000000	0.000000	0.000000	1	1	0	0	0	0	0	0	0	0	0	0	0	0	0	0
21.000000	4355.384615	4388.205128	4409.743590	3713.333333	4376.923077	4610.256410	4627.179487	4528.717949	4022.564103	4104.615385	4515.384615	4438.461538	4272.307692	3953.846154	1661.000000	1682.000000	22.439000	0.000000	0.000000	0.000000	0.000000	1	1	0	0	0	0	0	0	0	0	0	0	0	0	0	0
22.000000	4358.461538	4386.666667	4412.307692	3714.358974	4376.923077	4610.256410	4627.692308	4526.666667	4024.615385	4100.512821	4514.871795	4440.000000	4268.205128	3954.358974	1657.000000	1685.000000	22.459000	0.000000	0.000000	0.000000	0.000000	1	1	0	0	0	0	0	0	0	0	0	0	0	0	0	0
23.000000	4358.974359	4386.666667	4413.846154	3712.307692	4378.974359	4611.282051	4630.769231	4526.666667	4026.153846	4100.000000	4514.871795	4438.974359	4263.589744	3952.307692	1656.000000	1688.000000	22.459000	0.000000	0.000000	0.000000	0.000000	1	1	0	0	0	0	0	0	0	0	0	0	0	0	0	0
24.000000	4353.846154	4385.641026	4411.282051	3710.256410	4381.538462	4608.717949	4630.769231	4528.205128	4024.102564	4101.025641	4513.333333	4437.435897	4266.666667	3948.717949	1654.000000	1691.000000	22.459000	0.000000	0.000000	0.000000	0.000000	1	1	0	0	0	0	0	0	0	0	0	0	0	0	0	0
25.000000	4354.358974	4386.666667	4407.692308	3714.871795	4381.538462	4608.205128	4627.692308	4527.179487	4023.589744	4101.025641	4513.333333	4440.000000	4268.717949	3952.820513	1654.000000	1694.000000	22.475000	0.000000	0.000000	0.000000	0.000000	1	1	0	0	0	0	0	0	0	0	0	0	0	0	0	0
26.000000	4356.410256	4388.717949	4407.179487	3717.435897	4377.948718	4610.256410	4627.179487	4523.589744	4025.641026	4101.025641	4514.871795	4440.512821	4267.179487	3955.897436	1653.000000	1696.000000	22.475000	0.000000	0.000000	0.000000	0.000000	1	1	0	0	0	0	0	0	0	0	0	0	0	0	0	0
27.000000	4354.871795	4387.692308	4408.205128	3714.871795	4376.923077	4609.743590	4626.666667	4525.641026	4025.128205	4101.538462	4514.871795	4437.948718	4267.692308	3953.846154	1652.000000	1699.000000	22.491000	0.000000	0.000000	0.000000	0.000000	1	1	0	0	0	0	0	0	0	0	0	0	0	0	0	0
28.000000	4355.384615	4389.743590	4408.717949	3711.794872	4379.487179	4611.282051	4627.179487	4530.769231	4023.076923	4103.076923	4513.333333	4437.948718	4268.205128	3953.333333	1649.000000	1700.000000	22.491000	0.000000	0.000000	0.000000	0.000000	1	1	0	0	0	0	0	0	0	0	0	0	0	0	0	0
29.000000	4358.974359	4390.769231	4408.205128	3712.307692	4380.512821	4612.820513	4629.743590	4528.205128	4025.641026	4104.102564	4514.358974	4438.974359	4267.692308	3954.358974	1646.000000	1702.000000	22.506000	0.000000	0.000000	0.000000	0.000000	1	1	0	0	0	0	0	0	0	0	0	0	0	0	0	0
30.000000	4355.897436	4385.128205	4408.717949	3715.384615	4377.948718	4612.307692	4631.794872	4524.102564	4026.666667	4103.076923	4514.871795	4435.897436	4266.153846	3950.769231	1642.000000	1701.000000	22.506000	0.000000	0.000000	0.000000	0.000000	1	1	0	0	0	0	0	0	0	0	0	0	0	0	0	0
31.000000	4351.282051	4384.615385	4412.307692	3714.358974	4376.923077	4611.282051	4631.794872	4523.076923	4022.051282	4100.512821	4513.846154	4435.897436	4265.128205	3949.230769	1639.000000	1703.000000	22.522000	0.000000	0.000000	0.000000	0.000000	1	1	0	0	0	0	0	0	0	0	0	0	0	0	0	0
32.000000	4353.846154	4386.666667	4413.333333	3710.769231	4380.512821	4612.820513	4631.794872	4524.615385	4020.000000	4100.000000	4512.820513	4435.897436	4264.102564	3949.743590	1639.000000	1702.000000	22.522000	0.000000	0.000000	0.000000	0.000000	1	1	0	0	0	0	0	0	0	0	0	0	0	0	0	0
33.000000	4356.923077	4384.102564	4408.717949	3711.282051	4382.564103	4615.384615	4628.205128	4525.128205	4023.076923	4103.589744	4514.358974	4434.358974	4264.102564	3950.769231	1638.000000	1703.000000	22.538000	0.000000	0.000000	0.000000	0.000000	1	1	0	0	0	0	0	0	0	0	0	0	0	0	0	0
34.000000	4353.333333	4384.102564	4408.717949	3714.871795	4381.538462	4615.384615	4630.769231	4522.051282	4023.076923	4103.076923	4514.358974	4433.333333	4264.102564	3949.230769	1637.000000	1701.000000	22.553000	0.000000	0.000000	0.000000	0.000000	1	1	0	0	0	0	0	0	0	0	0	0	0	0	0	0
35.000000	4351.282051	4387.179487	4412.307692	3714.871795	4382.051282	4613.333333	4637.948718	4525.128205	4021.025641	4099.487179	4511.794872	4435.384615	4263.076923	3948.717949	1636.000000	1701.000000	22.553000	0.000000	0.000000	0.000000	0.000000	1	1	0	0	0	0	0	0	0	0	0	0	0	0	0	0
36.000000	4352.307692	4384.102564	4412.307692	3713.846154	4384.102564	4612.307692	4637.948718	4532.820513	4022.564103	4102.051282	4511.794872	4435.384615	4264.102564	3947.692308	1637.000000	1700.000000	22.553000	0.000000	0.000000	0.000000	0.000000	1	1	0	0	0	0	0	0	0	0	0	0	0	0	0	0
37.000000	4350.769231	4383.589744	4411.794872	3715.897436	4384.102564	4613.333333	4633.846154	4531.794872	4024.102564	4105.641026	4512.307692	4431.282051	4263.589744	3946.153846	1638.000000	1698.000000	22.573000	0.000000	0.000000	0.000000	0.000000	1	1	0	0	0	0	0	0	0	0	0	0	0	0	0	0
38.000000	4350.256410	4386.153846	4412.820513	3717.435897	4383.589744	4613.846154	4635.384615	4527.692308	4023.076923	4103.076923	4511.282051	4429.743590	4262.564103	3944.615385	1639.000000	1697.000000	22.573000	0.000000	0.000000	0.000000	0.000000	1	1	0	0	0	0	0	0	0	0	0	0	0	0	0	0
39.000000	4353.333333	4385.128205	4413.333333	3715.384615	4382.051282	4612.820513	4636.923077	4528.205128	4022.564103	4102.051282	4510.769231	4429.743590	4261.538462	3942.564103	1636.000000	1698.000000	22.589000	0.000000	0.000000	0.000000	0.000000	1	1	0	0	0	0	0	0	0	0	0	0	0	0	0	0
40.000000	4354.871795	4382.564103	4412.307692	3713.846154	4382.051282	4611.282051	4634.358974	4525.641026	4022.564103	4101.538462	4512.307692	4427.692308	4261.025641	3942.564103	1632.000000	1701.000000	22.589000	0.000000	0.000000	0.000000	0.000000	1	1	0	0	0	0	0	0	0	0	0	0	0	0	0	0
41.000000	4352.307692	4382.564103	4413.333333	3714.358974	4384.615385	4610.769231	4633.333333	4523.589744	4022.564103	4098.461538	4512.820513	4426.153846	4261.025641	3944.615385	1625.000000	1701.000000	22.604000	0.000000	0.000000	0.000000	0.000000	1	1	0	0	0	0	0	0	0	0	0	0	0	0	0	0
42.000000	4351.282051	4384.615385	4415.384615	3714.358974	4383.589744	4611.282051	4635.384615	4525.128205	4024.102564	4100.000000	4511.794872	4429.230769	4263.076923	3946.153846	1616.000000	1707.000000	22.604000	0.000000	0.000000	0.000000	0.000000	1	1	0	0	0	0	0	0	0	0	0	0	0	0	0	0
43.000000	4352.820513	4383.589744	4414.358974	3712.307692	4381.025641	4610.769231	4635.897436	4523.589744	4024.102564	4105.128205	4512.820513	4432.307692	4264.615385	3946.666667	1611.000000	1712.000000	22.620000	0.000000	0.000000	0.000000	0.000000	1	1	0	0	0	0	0	0	0	0	0	0	0	0	0	0
44.000000	4355.897436	4385.641026	4410.769231	3712.307692	4381.538462	4610.769231	4634.871795	4527.692308	4022.564103	4104.615385	4514.871795	4435.897436	4265.128205	3948.205128	1604.000000	1717.000000	22.620000	0.000000	0.000000	0.000000	0.000000	1	1	0	0	0	0	0	0	0	0	0	0	0	0	0	0
45.000000	4357.435897	4389.230769	4411.794872	3713.333333	4381.025641	4611.794872	4633.846154	4532.820513	4023.589744	4101.538462	4514.358974	4437.948718	4266.153846	3948.717949	1603.000000	1723.000000	22.636000	0.000000	0.000000	0.000000	0.000000	1	1	0	0	0	0	0	0	0	0	0	0	0	0	0	0
46.000000	4358.461538	4389.743590	4411.794872	3713.333333	4377.948718	4611.794872	4629.230769	4526.153846	4024.615385	4104.102564	4512.820513	4436.923077	4268.205128	3951.282051	1604.000000	1727.000000	22.636000	0.000000	0.000000	0.000000	0.000000	1	1	0	0	0	0	0	0	0	0	0	0	0	0	0	0
47.000000	4360.000000	4389.743590	4402.564103	3712.307692	4376.410256	4612.307692	4623.589744	4522.564103	4023.589744	4103.589744	4514.871795	4437.948718	4268.205128	3955.897436	1606.000000	1730.000000	22.651000	0.000000	0.000000	0.000000	0.000000	1	1	0	0	0	0	0	0	0	0	0	0	0	0	0	0
48.000000	4358.461538	4389.743590	4402.051282	3712.820513	4377.948718	4612.307692	4624.102564	4525.128205	4024.615385	4098.974359	4516.923077	4440.512821	4270.256410	3958.461538	1612.000000	1733.000000	22.651000	0.000000	0.000000	0.000000	0.000000	1	1	0	0	0	0	0	0	0	0	0	0	0	0	0	0
49.000000	4348.717949	4386.666667	4410.769231	3718.461538	4377.948718	4612.307692	4630.769231	4524.102564	4025.641026	4101.538462	4516.410256	4439.487179	4270.256410	3958.974359	1620.000000	1733.000000	22.667000	0.000000	0.000000	0.000000	0.000000	1	1	0	0	0	0	0	0	0	0	0	0	0	0	0	0
50.000000	4345.128205	4383.076923	4409.230769	3719.487179	4376.410256	4611.794872	4634.358974	4524.102564	4025.128205	4106.666667	4514.871795	4439.487179	4268.717949	3958.461538	1628.000000	1734.000000	22.667000	0.000000	0.000000	0.000000	0.000000	1	1	0	0	0	0	0	0	0	0	0	0	0	0	0	0
51.000000	4352.820513	4386.666667	4403.589744	3712.820513	4374.871795	4610.769231	4631.282051	4526.666667	4026.153846	4103.589744	4513.846154	4441.538462	4268.205128	3956.923077	1632.000000	1734.000000	22.683000	0.000000	0.000000	0.000000	0.000000	1	1	0	0	0	0	0	0	0	0	0	0	0	0	0	0
52.000000	4361.538462	4392.307692	4409.743590	3711.282051	4372.820513	4608.205128	4623.076923	4523.589744	4025.128205	4100.512821	4513.846154	4441.025641	4269.743590	3954.871795	1643.000000	1731.000000	22.687000	0.000000	0.000000	0.000000	0.000000	1	1	0	0	0	0	0	0	0	0	0	0	0	0	0	0
53.000000	4366.153846	4395.897436	4415.897436	3712.307692	4368.717949	4608.205128	4615.384615	4522.564103	4021.025641	4104.102564	4515.384615	4440.512821	4269.230769	3951.282051	1653.000000	1727.000000	22.687000	0.000000	0.000000	0.000000	0.000000	1	1	0	0	0	0	0	0	0	0	0	0	0	0	0	0
54.000000	4367.179487	4398.974359	4407.692308	3707.179487	4367.179487	4608.717949	4612.820513	4522.564103	4024.102564	4105.128205	4517.435897	4440.512821	4267.692308	3949.743590	1659.000000	1722.000000	22.703000	0.000000	0.000000	0.000000	0.000000	1	1	0	0	0	0	0	0	0	0	0	0	0	0	0	0
55.000000	4364.615385	4398.461538	4400.000000	3704.102564	4370.256410	4608.717949	4612.307692	4522.051282	4027.692308	4103.589744	4516.410256	4442.051282	4269.743590	3952.307692	1662.000000	1717.000000	22.703000	0.000000	0.000000	0.000000	0.000000	1	1	0	0	0	0	0	0	0	0	0	0	0	0	0	0
56.000000	4360.512821	4392.820513	4405.641026	3709.743590	4373.333333	4610.769231	4614.871795	4526.153846	4024.102564	4104.102564	4514.871795	4442.564103	4271.794872	3954.358974	1661.000000	1713.000000	22.718000	0.000000	0.000000	0.000000	0.000000	1	1	0	0	0	0	0	0	0	0	0	0	0	0	0	0
57.000000	4353.846154	4386.666667	4413.333333	3715.897436	4378.974359	4611.794872	4627.692308	4526.666667	4021.538462	4101.538462	4514.358974	4440.000000	4269.743590	3955.384615	1660.000000	1710.000000	22.718000	0.000000	0.000000	0.000000	0.000000	1	1	0	0	0	0	0	0	0	0	0	0	0	0	0	0
58.000000	4343.589744	4380.000000	4412.307692	3715.897436	4389.230769	4610.769231	4645.641026	4522.564103	4024.615385	4100.512821	4515.384615	4438.461538	4266.666667	3953.333333	1661.000000	1706.000000	22.734000	0.000000	0.000000	0.000000	0.000000	1	1	0	0	0	0	0	0	0	0	0	0	0	0	0	0
59.000000	4339.487179	4371.794872	4411.794872	3714.871795	4392.307692	4610.769231	4656.410256	4527.692308	4025.641026	4101.025641	4514.871795	4440.512821	4266.153846	3952.307692	1662.000000	1702.000000	22.734000	0.000000	0.000000	0.000000	0.000000	1	1	0	0	0	0	0	0	0	0	0	0	0	0	0	0
60.000000	4345.128205	4371.282051	4413.333333	3717.948718	4387.692308	4613.846154	4656.410256	4532.307692	4023.589744	4102.051282	4513.333333	4441.025641	4267.692308	3955.897436	1665.000000	1692.000000	22.749000	0.000000	0.000000	0.000000	0.000000	1	1	0	0	0	0	0	0	0	0	0	0	0	0	0	0
61.000000	4353.333333	4381.538462	4411.282051	3716.410256	4381.025641	4613.846154	4641.538462	4526.666667	4025.128205	4101.025641	4513.333333	4440.512821	4269.743590	3957.435897	1667.000000	1685.000000	22.749000	0.000000	0.000000	0.000000	0.000000	1	1	0	0	0	0	0	0	0	0	0	0	0	0	0	0
62.000000	4357.948718	4389.743590	4410.256410	3710.769231	4378.461538	4612.820513	4621.025641	4523.076923	4026.153846	4101.538462	4516.410256	4440.000000	4267.692308	3953.333333	1674.000000	1672.000000	22.765000	0.000000	0.000000	0.000000	0.000000	1	1	0	0	0	0	0	0	0	0	0	0	0	0	0	0
63.000000	4359.487179	4390.256410	4409.743590	3710.769231	4379.487179	4610.256410	4617.948718	4524.102564	4024.615385	4101.538462	4517.948718	4441.025641	4267.692308	3955.384615	1676.000000	1659.000000	22.765000	0.000000	0.000000	0.000000	0.000000	1	1	0	0	0	0	0	0	0	0	0	0	0	0	0	0
64.000000	4356.410256	4390.256410	4407.692308	3713.333333	4377.948718	4612.307692	4628.717949	4522.051282	4024.102564	4101.025641	4515.897436	4442.564103	4269.230769	3959.487179	1677.000000	1650.000000	22.781000	0.000000	0.000000	0.000000	0.000000	1	1	0	0	0	0	0	0	0	0	0	0	0	0	0	0
65.000000	4355.384615	4388.205128	4410.769231	3713.333333	4377.435897	4618.461538	4633.333333	4521.538462	4025.128205	4102.051282	4516.410256	4444.102564	4269.230769	3958.974359	1674.000000	1637.000000	22.781000	0.000000	0.000000	0.000000	0.000000	1	1	0	0	0	0	0	0	0	0	0	0	0	0	0	0
66.000000	4357.435897	4383.589744	4413.846154	3713.333333	4380.512821	4616.923077	4635.897436	4522.051282	4025.128205	4101.538462	4516.410256	4441.538462	4270.256410	3956.410256	1669.000000	1631.000000	22.801000	0.000000	0.000000	0.000000	0.000000	1	1	0	0	0	0	0	0	0	0	0	0	0	0	0	0
67.000000	4356.923077	4387.179487	4410.256410	3706.666667	4382.564103	4614.358974	4644.102564	4520.512821	4023.589744	4103.076923	4514.358974	4440.000000	4273.846154	3954.358974	1660.000000	1625.000000	22.801000	0.000000	0.000000	0.000000	0.000000	1	1	0	0	0	0	0	0	0	0	0	0	0	0	0	0
68.000000	4353.333333	4396.410256	4409.743590	3702.564103	4377.948718	4615.384615	4642.564103	4521.538462	4023.589744	4103.076923	4513.846154	4442.051282	4274.358974	3953.333333	1655.000000	1623.000000	22.816000	0.000000	0.000000	0.000000	0.000000	1	1	0	0	0	0	0	0	0	0	0	0	0	0	0	0
69.000000	4353.333333	4396.410256	4410.769231	3712.820513	4373.333333	4613.846154	4622.564103	4522.051282	4025.128205	4100.000000	4515.384615	4444.615385	4273.846154	3958.974359	1652.000000	1629.000000	22.816000	0.000000	0.000000	0.000000	0.000000	1	1	0	0	0	0	0	0	0	0	0	0	0	0	0	0
70.000000	4358.974359	4394.358974	4405.128205	3714.358974	4373.333333	4609.230769	4609.230769	4521.025641	4024.615385	4103.076923	4515.384615	4444.615385	4274.358974	3965.128205	1650.000000	1639.000000	22.832000	0.000000	0.000000	0.000000	0.000000	1	1	0	0	0	0	0	0	0	0	0	0	0	0	0	0
71.000000	4366.153846	4400.000000	4398.461538	3701.538462	4372.820513	4607.179487	4617.435897	4521.025641	4022.564103	4106.153846	4515.384615	4443.589744	4272.307692	3965.128205	1648.000000	1646.000000	22.832000	0.000000	0.000000	0.000000	0.000000	1	1	0	0	0	0	0	0	0	0	0	0	0	0	0	0
72.000000	4371.282051	4402.564103	4404.102564	3700.512821	4371.282051	4609.230769	4623.589744	4521.025641	4023.076923	4103.076923	4516.410256	4445.128205	4272.307692	3959.487179	1645.000000	1659.000000	22.848000	0.000000	0.000000	0.000000	0.000000	1	1	0	0	0	0	0	0	0	0	0	0	0	0	0	0
73.000000	4366.153846	4396.410256	4412.307692	3707.692308	4372.307692	4610.256410	4616.410256	4520.512821	4025.128205	4101.025641	4512.820513	4444.102564	4276.410256	3957.948718	1650.000000	1672.000000	22.848000	0.000000	0.000000	0.000000	0.000000	1	1	0	0	0	0	0	0	0	0	0	0	0	0	0	0
74.000000	4359.487179	4392.307692	4404.615385	3707.179487	4375.384615	4610.256410	4616.923077	4518.974359	4026.153846	4101.025641	4504.615385	4442.051282	4277.948718	3969.230769	1655.000000	1685.000000	22.863000	0.000000	0.000000	0.000000	0.000000	1	1	0	0	0	0	0	0	0	0	0	0	0	0	0	0
75.000000	4357.948718	4391.794872	4396.410256	3705.641026	4375.384615	4607.692308	4627.179487	4518.974359	4024.615385	4093.846154	4500.000000	4442.051282	4274.871795	3984.102564	1664.000000	1702.000000	22.863000	0.000000	0.000000	0.000000	0.000000	1	1	0	0	0	0	0	0	0	0	0	0	0	0	0	0
76.000000	4360.512821	4392.820513	4397.435897	3706.666667	4373.333333	4608.205128	4623.589744	4520.512821	4017.948718	4088.717949	4501.025641	4439.487179	4274.358974	3991.282051	1666.000000	1712.000000	22.879000	0.000000	0.000000	0.000000	0.000000	1	1	0	0	0	0	0	0	0	0	0	0	0	0	0	0
77.000000	4364.615385	4392.820513	4398.461538	3703.589744	4373.846154	4610.769231	4612.307692	4521.025641	4012.307692	4091.282051	4497.948718	4435.897436	4277.948718	3995.384615	1664.000000	1729.000000	22.879000	0.000000	0.000000	0.000000	0.000000	1	1	0	0	0	0	0	0	0	0	0	0	0	0	0	0
78.000000	4367.179487	4392.307692	4395.384615	3698.974359	4375.384615	4610.256410	4615.897436	4521.025641	4011.794872	4091.282051	4492.307692	4435.897436	4279.487179	4000.512821	1664.000000	1742.000000	22.895000	0.000000	0.000000	0.000000	0.000000	1	1	0	0	0	0	0	0	0	0	0	0	0	0	0	0
79.000000	4362.051282	4390.256410	4398.461538	3697.948718	4377.435897	4611.794872	4637.948718	4522.564103	4012.820513	4090.256410	4495.384615	4433.846154	4277.435897	3991.794872	1672.000000	1756.000000	22.895000	0.000000	0.000000	0.000000	0.000000	1	1	0	0	0	0	0	0	0	0	0	0	0	0	0	0
80.000000	4354.871795	4393.333333	4405.128205	3702.564103	4376.410256	4611.794872	4647.179487	4523.076923	4017.948718	4096.923077	4505.641026	4437.435897	4278.461538	3974.871795	1690.000000	1769.000000	22.911000	0.000000	0.000000	0.000000	0.000000	1	1	0	0	0	0	0	0	0	0	0	0	0	0	0	0
81.000000	4352.820513	4394.358974	4410.256410	3714.871795	4372.307692	4610.256410	4623.589744	4521.538462	4022.564103	4102.051282	4513.333333	4446.153846	4278.461538	3966.153846	1710.000000	1779.000000	22.915000	0.000000	0.000000	0.000000	0.000000	1	1	0	0	0	0	0	0	0	0	0	0	0	0	0	0
82.000000	4357.435897	4391.282051	4416.410256	3727.179487	4366.666667	4609.743590	4596.410256	4522.564103	4020.512821	4098.461538	4516.923077	4446.666667	4277.435897	3966.153846	1733.000000	1782.000000	22.915000	0.000000	0.000000	0.000000	0.000000	1	1	0	0	0	0	0	0	0	0	0	0	0	0	0	0
83.000000	4367.179487	4391.282051	4415.897436	3724.102564	4363.076923	4609.230769	4596.410256	4524.615385	4018.461538	4095.897436	4516.410256	4443.589744	4280.000000	3968.717949	1757.000000	1782.000000	22.930000	0.000000	0.000000	0.000000	0.000000	1	1	0	0	0	0	0	0	0	0	0	0	0	0	0	0
84.000000	4371.794872	4395.384615	4408.717949	3708.205128	4366.666667	4607.692308	4612.820513	4524.102564	4017.948718	4097.435897	4513.846154	4448.205128	4283.076923	3972.307692	1789.000000	1778.000000	22.930000	0.000000	0.000000	0.000000	0.000000	1	1	0	0	0	0	0	0	0	0	0	0	0	0	0	0
85.000000	4365.128205	4397.435897	4406.666667	3700.000000	4372.307692	4609.230769	4626.153846	4525.641026	4017.435897	4097.948718	4510.769231	4448.717949	4281.025641	3970.769231	1823.000000	1775.000000	22.946000	0.000000	0.000000	0.000000	0.000000	1	1	0	0	0	0	0	0	0	0	0	0	0	0	0	0
86.000000	4360.000000	4397.435897	4411.794872	3701.025641	4374.871795	4610.769231	4628.717949	4526.666667	4024.102564	4098.461538	4510.769231	4446.666667	4278.461538	3963.076923	1854.000000	1772.000000	22.946000	0.000000	0.000000	0.000000	0.000000	1	1	0	0	0	0	0	0	0	0	0	0	0	0	0	0
87.000000	4361.025641	4398.461538	4413.846154	3702.564103	4372.820513	4609.230769	4619.487179	4528.205128	4029.743590	4101.025641	4518.974359	4451.282051	4278.461538	3961.538462	1873.000000	1765.000000	22.962000	0.000000	0.000000	0.000000	0.000000	1	1	0	0	0	0	0	0	0	0	0	0	0	0	0	0
88.000000	4361.025641	4396.410256	4410.769231	3708.205128	4371.282051	4606.153846	4612.307692	4528.205128	4025.641026	4101.538462	4527.692308	4453.333333	4278.461538	3962.051282	1885.000000	1762.000000	22.962000	0.000000	0.000000	0.000000	0.000000	1	1	0	0	0	0	0	0	0	0	0	0	0	0	0	0
89.000000	4361.025641	4392.307692	4409.230769	3711.794872	4371.794872	4606.153846	4617.435897	4529.230769	4022.051282	4101.025641	4532.820513	4455.897436	4276.410256	3951.282051	1891.000000	1760.000000	22.977000	0.000000	0.000000	0.000000	0.000000	1	1	0	0	0	0	0	0	0	0	0	0	0	0	0	0
90.000000	4360.000000	4393.333333	4410.769231	3706.153846	4372.307692	4609.743590	4625.128205	4531.794872	4026.153846	4108.717949	4543.589744	4464.102564	4271.282051	3928.717949	1892.000000	1760.000000	22.977000	0.000000	0.000000	0.000000	0.000000	1	1	0	0	0	0	0	0	0	0	0	0	0	0	0	0
91.000000	4362.051282	4400.000000	4410.769231	3704.615385	4372.820513	4609.230769	4626.153846	4535.384615	4033.333333	4116.923077	4553.333333	4470.769231	4267.692308	3913.846154	1893.000000	1761.000000	22.993000	0.000000	0.000000	0.000000	0.000000	1	1	0	0	0	0	0	0	0	0	0	0	0	0	0	0
92.000000	4372.307692	4404.102564	4404.102564	3703.076923	4370.769231	4612.820513	4615.897436	4534.871795	4038.461538	4112.820513	4544.615385	4465.641026	4271.282051	3926.666667	1889.000000	1762.000000	22.993000	0.000000	0.000000	0.000000	0.000000	1	1	0	0	0	0	0	0	0	0	0	0	0	0	0	0
93.000000	4383.589744	4403.589744	4399.487179	3690.256410	4367.179487	4620.000000	4599.487179	4530.256410	4038.461538	4107.179487	4530.769231	4458.974359	4278.461538	3948.717949	1885.000000	1764.000000	23.008000	0.000000	0.000000	0.000000	0.000000	1	1	0	0	0	0	0	0	0	0	0	0	0	0	0	0
94.000000	4388.205128	4404.102564	4395.897436	3680.000000	4366.153846	4615.384615	4603.589744	4528.205128	4034.358974	4107.179487	4529.743590	4458.974359	4276.923077	3951.282051	1874.000000	1764.000000	23.008000	0.000000	0.000000	0.000000	0.000000	1	1	0	0	0	0	0	0	0	0	0	0	0	0	0	0
95.000000	4396.923077	4411.282051	4378.974359	3667.179487	4369.743590	4606.153846	4624.102564	4529.230769	4031.282051	4103.589744	4527.692308	4461.538462	4273.333333	3954.871795	1860.000000	1765.000000	23.029000	0.000000	0.000000	0.000000	0.000000	1	1	0	0	0	0	0	0	0	0	0	0	0	0	0	0
96.000000	4411.282051	4423.076923	4359.487179	3634.358974	4374.871795	4609.230769	4628.717949	4528.717949	4028.717949	4098.461538	4510.769231	4453.333333	4278.461538	3975.384615	1843.000000	1761.000000	23.029000	0.000000	0.000000	0.000000	0.000000	1	1	0	0	0	0	0	0	0	0	0	0	0	0	0	0
97.000000	4417.435897	4427.179487	4354.358974	3608.717949	4378.974359	4611.282051	4621.025641	4523.589744	4028.717949	4098.974359	4495.384615	4444.102564	4282.051282	3989.230769	1831.000000	1756.000000	23.044000	0.000000	0.000000	0.000000	0.000000	1	1	0	0	0	0	0	0	0	0	0	0	0	0	0	0
98.000000	4404.615385	4418.461538	4361.025641	3614.871795	4384.102564	4602.051282	4633.846154	4521.025641	4035.384615	4093.333333	4492.820513	4444.102564	4273.846154	3981.025641	1818.000000	1741.000000	23.044000	0.000000	0.000000	0.000000	0.000000	1	1	0	0	0	0	0	0	0	0	0	0	0	0	0	0
99.000000	4383.589744	4406.666667	4378.974359	3638.461538	4387.179487	4603.076923	4647.692308	4521.538462	4038.461538	4091.794872	4496.923077	4446.153846	4263.076923	3957.948718	1809.000000	1725.000000	23.060000	0.000000	0.000000	0.000000	0.000000	1	1	0	0	0	0	0	0	0	0	0	0	0	0	0	0
100.000000	4368.717949	4392.307692	4403.589744	3666.666667	4383.076923	4614.358974	4637.948718	4519.487179	4032.820513	4100.000000	4503.589744	4446.153846	4260.512821	3931.282051	1814.000000	1702.000000	23.060000	0.000000	0.000000	0.000000	0.000000	1	1	0	0	0	0	0	0	0	0	0	0	0	0	0	0
101.000000	4361.538462	4377.435897	4413.846154	3694.871795	4376.410256	4613.846154	4620.512821	4521.538462	4028.205128	4103.076923	4513.333333	4450.256410	4263.076923	3931.282051	1821.000000	1669.000000	23.075000	0.000000	0.000000	0.000000	0.000000	1	1	0	0	0	0	0	0	0	0	0	0	0	0	0	0
102.000000	4356.410256	4376.410256	4410.256410	3709.230769	4373.333333	4607.692308	4615.384615	4523.589744	4028.205128	4103.589744	4518.974359	4453.846154	4266.153846	3951.794872	1834.000000	1640.000000	23.075000	0.000000	0.000000	0.000000	0.000000	1	1	0	0	0	0	0	0	0	0	0	0	0	0	0	0
103.000000	4349.743590	4378.974359	4410.256410	3717.435897	4373.846154	4607.692308	4613.333333	4523.589744	4029.230769	4107.179487	4517.435897	4453.846154	4270.256410	3956.410256	1846.000000	1606.000000	23.091000	0.000000	0.000000	0.000000	0.000000	1	1	0	0	0	0	0	0	0	0	0	0	0	0	0	0
104.000000	4344.615385	4374.358974	4415.897436	3732.307692	4372.820513	4610.769231	4610.769231	4526.666667	4029.743590	4107.692308	4515.897436	4453.333333	4274.358974	3950.256410	1850.000000	1574.000000	23.091000	0.000000	0.000000	0.000000	0.000000	1	1	0	0	0	0	0	0	0	0	0	0	0	0	0	0
105.000000	4344.615385	4375.897436	4418.461538	3738.461538	4370.769231	4610.256410	4615.897436	4533.846154	4028.205128	4102.564103	4516.923077	4455.384615	4274.358974	3954.358974	1850.000000	1549.000000	23.107000	0.000000	0.000000	0.000000	0.000000	1	1	0	0	0	0	0	0	0	0	0	0	0	0	0	0
106.000000	4349.743590	4384.102564	4410.256410	3725.128205	4367.179487	4610.256410	4615.897436	4530.769231	4025.641026	4097.948718	4516.923077	4455.384615	4274.871795	3968.717949	1853.000000	1537.000000	23.107000	0.000000	0.000000	0.000000	0.000000	1	1	0	0	0	0	0	0	0	0	0	0	0	0	0	0
107.000000	4357.435897	4386.153846	4405.128205	3716.410256	4366.666667	4609.743590	4610.769231	4527.692308	4023.076923	4093.846154	4517.948718	4451.794872	4280.512821	3984.102564	1895.000000	1492.000000	23.122000	0.000000	0.000000	0.000000	0.000000	1	1	0	0	0	0	0	0	0	0	0	0	0	0	0	0
108.000000	4358.461538	4384.615385	4411.282051	3722.051282	4366.666667	4609.230769	4610.769231	4531.794872	4019.487179	4090.769231	4518.461538	4453.846154	4287.179487	3993.333333	1927.000000	1474.000000	23.122000	0.000000	0.000000	0.000000	0.000000	1	1	0	0	0	0	0	0	0	0	0	0	0	0	0	0
109.000000	4356.923077	4385.641026	4418.461538	3723.076923	4368.205128	4608.717949	4616.410256	4532.307692	4014.871795	4084.615385	4514.871795	4456.923077	4285.128205	3990.256410	1952.000000	1451.000000	23.138000	0.000000	0.000000	0.000000	0.000000	1	1	0	0	0	0	0	0	0	0	0	0	0	0	0	0
110.000000	4362.051282	4384.615385	4407.179487	3710.769231	4372.307692	4611.282051	4610.769231	4529.743590	4024.615385	4091.282051	4515.897436	4454.871795	4280.512821	3983.589744	1976.000000	1431.000000	23.142000	0.000000	0.000000	0.000000	0.000000	1	1	0	0	0	0	0	0	0	0	0	0	0	0	0	0
111.000000	4366.666667	4390.769231	4405.641026	3701.538462	4374.358974	4611.794872	4618.461538	4528.205128	4026.153846	4092.307692	4509.743590	4449.230769	4275.897436	3981.538462	1996.000000	1410.000000	23.142000	0.000000	0.000000	0.000000	0.000000	1	1	0	0	0	0	0	0	0	0	0	0	0	0	0	0
112.000000	4368.205128	4399.487179	4409.743590	3694.871795	4375.384615	4609.230769	4629.230769	4525.128205	4004.615385	4054.358974	4476.923077	4440.000000	4273.846154	4004.615385	2006.000000	1391.000000	23.158000	0.000000	0.000000	0.000000	0.000000	1	1	0	0	0	0	0	0	0	0	0	0	0	0	0	0
113.000000	4366.666667	4392.820513	4398.461538	3688.717949	4381.538462	4609.743590	4625.641026	4521.025641	4013.333333	4050.256410	4464.615385	4434.358974	4274.358974	4020.000000	2005.000000	1371.000000	23.158000	0.000000	0.000000	0.000000	0.000000	1	1	0	0	0	0	0	0	0	0	0	0	0	0	0	0
114.000000	4352.307692	4375.384615	4399.487179	3697.948718	4384.615385	4610.769231	4642.564103	4528.205128	4049.743590	4108.717949	4501.025641	4444.102564	4274.871795	3990.256410	2008.000000	1354.000000	23.174000	0.000000	0.000000	0.000000	0.000000	1	1	0	0	0	0	0	0	0	0	0	0	0	0	0	0
115.000000	4324.102564	4361.538462	4423.589744	3733.333333	4378.974359	4609.230769	4663.589744	4534.871795	4047.692308	4132.307692	4526.666667	4452.820513	4267.692308	3948.717949	2015.000000	1332.000000	23.174000	0.000000	0.000000	0.000000	0.000000	1	1	0	0	0	0	0	0	0	0	0	0	0	0	0	0
116.000000	4307.692308	4358.974359	4440.512821	3773.333333	4374.871795	4609.743590	4632.820513	4531.794872	4016.923077	4097.948718	4522.051282	4447.692308	4262.564103	3944.102564	2030.000000	1320.000000	23.189000	0.000000	0.000000	0.000000	0.000000	1	1	0	0	0	0	0	0	0	0	0	0	0	0	0	0
117.000000	4305.128205	4355.384615	4435.897436	3794.358974	4374.358974	4611.794872	4592.307692	4531.282051	4004.615385	4085.128205	4522.564103	4444.102564	4272.820513	3963.076923	2040.000000	1304.000000	23.189000	0.000000	0.000000	0.000000	0.000000	1	1	0	0	0	0	0	0	0	0	0	0	0	0	0	0
118.000000	4307.692308	4354.358974	4435.897436	3797.948718	4373.333333	4608.717949	4603.589744	4533.846154	4003.076923	4103.076923	4542.051282	4449.230769	4276.923077	3957.435897	2046.000000	1307.000000	23.205000	0.000000	0.000000	0.000000	0.000000	1	1	0	0	0	0	0	0	0	0	0	0	0	0	0	0
119.000000	4330.769231	4366.666667	4428.717949	3769.743590	4373.333333	4605.641026	4616.410256	4533.333333	4006.153846	4102.051282	4576.923077	4467.179487	4264.615385	3928.205128	2046.000000	1311.000000	23.205000	0.000000	0.000000	0.000000	0.000000	1	1	0	0	0	0	0	0	0	0	0	0	0	0	0	0
120.000000	4364.102564	4381.538462	4426.153846	3725.128205	4375.384615	4610.256410	4615.384615	4526.666667	4017.948718	4084.102564	4579.487179	4472.820513	4261.025641	3927.179487	2048.000000	1318.000000	23.221000	0.000000	0.000000	0.000000	0.000000	1	1	0	0	0	0	0	0	0	0	0	0	0	0	0	0
121.000000	4380.512821	4370.769231	4434.871795	3688.717949	4371.282051	4605.128205	4614.871795	4521.538462	4012.307692	4075.384615	4510.256410	4437.948718	4273.333333	3980.000000	2051.000000	1329.000000	23.221000	0.000000	0.000000	0.000000	0.000000	1	1	0	0	0	0	0	0	0	0	0	0	0	0	0	0
122.000000	4368.717949	4353.333333	4461.025641	3677.948718	4370.769231	4590.769231	4622.564103	4522.564103	3999.487179	4080.000000	4449.230769	4397.435897	4278.974359	3996.923077	2051.000000	1348.000000	23.236000	0.000000	0.000000	0.000000	0.000000	1	1	0	0	0	0	0	0	0	0	0	0	0	0	0	0
123.000000	4329.743590	4351.282051	4550.256410	3725.641026	4378.461538	4589.230769	4636.410256	4522.051282	4005.128205	4086.153846	4454.871795	4397.435897	4276.410256	3915.384615	2048.000000	1380.000000	23.236000	0.000000	0.000000	0.000000	0.000000	1	1	0	0	0	0	0	0	0	0	0	0	0	0	0	0
124.000000	4298.974359	4351.794872	4641.025641	3783.076923	4381.025641	4602.051282	4626.666667	4520.000000	4010.769231	4103.589744	4478.461538	4407.179487	4271.282051	3800.512821	2039.000000	1414.000000	23.253000	0.000000	0.000000	0.000000	0.000000	1	1	0	0	0	0	0	0	0	0	0	0	0	0	0	0
125.000000	4329.743590	4368.717949	4585.641026	3764.102564	4372.307692	4603.589744	4597.948718	4527.179487	4010.256410	4137.435897	4524.102564	4420.512821	4255.897436	3765.128205	2033.000000	1447.000000	23.257000	0.000000	0.000000	0.000000	0.000000	1	1	0	0	0	0	0	0	0	0	0	0	0	0	0	0
126.000000	4383.589744	4402.564103	4370.769231	3712.820513	4365.641026	4598.974359	4601.538462	4534.358974	4020.000000	4147.692308	4586.666667	4449.230769	4236.923077	3871.794872	2018.000000	1488.000000	23.257000	0.000000	0.000000	0.000000	0.000000	1	1	0	0	0	0	0	0	0	0	0	0	0	0	0	0
127.000000	4389.230769	4413.846154	4222.051282	3710.769231	4369.230769	4607.179487	4621.025641	4526.666667	4038.461538	4132.307692	4593.333333	4463.076923	4237.435897	4004.102564	2002.000000	1519.000000	23.273000	0.000000	0.000000	0.000000	0.000000	1	1	0	0	0	0	0	0	0	0	0	0	0	0	0	0
128.000000	4363.589744	4389.743590	4267.179487	3728.205128	4390.256410	4613.333333	4618.461538	4522.051282	4044.615385	4116.410256	4550.256410	4449.743590	4251.794872	4007.692308	1988.000000	1554.000000	23.288000	0.000000	0.000000	0.000000	0.000000	1	1	0	0	0	0	0	0	0	0	0	0	0	0	0	0
0.000000	4342.051282	4364.615385	4371.282051	3731.282051	4414.358974	4608.717949	4640.000000	4524.615385	4044.102564	4102.564103	4512.307692	4431.794872	4265.128205	3965.641026	1977.000000	1594.000000	23.288000	0.000000	0.000000	0.000000	0.000000	1	1	0	0	0	0	0	0	0	0	0	0	0	0	0	0
1.000000	4319.487179	4357.948718	4407.692308	3729.230769	4418.461538	4607.179487	4695.384615	4523.076923	4046.153846	4103.076923	4472.820513	4411.794872	4272.307692	3989.230769	1965.000000	1629.000000	23.288000	0.000000	0.000000	0.000000	0.000000	1	1	0	0	0	0	0	0	0	0	0	0	0	0	0	0
2.000000	4308.205128	4364.615385	4416.410256	3727.179487	4406.153846	4608.717949	4709.743590	4521.025641	4038.974359	4119.487179	4454.871795	4400.000000	4268.717949	3988.717949	1948.000000	1671.000000	23.304000	0.000000	0.000000	0.000000	0.000000	1	1	0	0	0	0	0	0	0	0	0	0	0	0	0	0
3.000000	4318.974359	4371.794872	4446.666667	3734.871795	4395.897436	4612.307692	4658.974359	4523.589744	4027.179487	4125.128205	4491.794872	4416.410256	4258.974359	3922.564103	1934.000000	1708.000000	23.304000	0.000000	0.000000	0.000000	0.000000	1	1	0	0	0	0	0	0	0	0	0	0	0	0	0	0
4.000000	4338.974359	4374.871795	4447.692308	3738.461538	4392.820513	4611.794872	4616.923077	4524.615385	4026.153846	4114.358974	4527.179487	4437.948718	4255.384615	3902.564103	1923.000000	1745.000000	23.320000	0.000000	0.000000	0.000000	0.000000	1	1	0	0	0	0	0	0	0	0	0	0	0	0	0	0
5.000000	4352.307692	4381.025641	4420.000000	3721.538462	4387.179487	4605.641026	4633.846154	4523.589744	4027.179487	4108.205128	4527.179487	4443.076923	4258.974359	3929.743590	1917.000000	1781.000000	23.335000	0.000000	0.000000	0.000000	0.000000	1	1	0	0	0	0	0	0	0	0	0	0	0	0	0	0
6.000000	4356.410256	4384.102564	4408.717949	3710.256410	4378.461538	4600.512821	4652.307692	4524.615385	4026.153846	4108.717949	4521.025641	4441.025641	4259.487179	3931.282051	1904.000000	1817.000000	23.335000	0.000000	0.000000	0.000000	0.000000	1	1	0	0	0	0	0	0	0	0	0	0	0	0	0	0
7.000000	4360.512821	4385.641026	4417.948718	3714.358974	4373.333333	4601.025641	4631.282051	4525.128205	4026.153846	4105.641026	4515.384615	4440.512821	4260.000000	3928.205128	1883.000000	1852.000000	23.335000	0.000000	0.000000	0.000000	0.000000	1	1	0	0	0	0	0	0	0	0	0	0	0	0	0	0
8.000000	4367.692308	4387.179487	4428.717949	3707.179487	4375.897436	4602.051282	4618.461538	4524.102564	4026.666667	4100.000000	4510.769231	4438.461538	4262.564103	3936.410256	1862.000000	1884.000000	23.351000	0.000000	0.000000	0.000000	0.000000	1	1	0	0	0	0	0	0	0	0	0	0	0	0	0	0
9.000000	4370.769231	4384.102564	4429.230769	3694.358974	4376.923077	4602.564103	4633.333333	4523.589744	4025.128205	4096.410256	4513.846154	4436.923077	4263.076923	3940.512821	1843.000000	1914.000000	23.366000	0.000000	0.000000	0.000000	0.000000	1	1	0	0	0	0	0	0	0	0	0	0	0	0	0	0
10.000000	4361.025641	4379.487179	4420.000000	3700.512821	4375.897436	4605.641026	4638.461538	4524.102564	4023.589744	4098.974359	4516.410256	4439.487179	4259.487179	3938.974359	1823.000000	1942.000000	23.371000	0.000000	0.000000	0.000000	0.000000	1	1	0	0	0	0	0	0	0	0	0	0	0	0	0	0
11.000000	4351.794872	4383.076923	4416.410256	3717.948718	4380.512821	4605.128205	4630.256410	4525.128205	4021.538462	4102.564103	4519.487179	4445.641026	4257.435897	3939.487179	1794.000000	1968.000000	23.371000	0.000000	0.000000	0.000000	0.000000	1	1	0	0	0	0	0	0	0	0	0	0	0	0	0	0
12.000000	4354.358974	4384.615385	4423.076923	3720.512821	4386.153846	4605.641026	4631.794872	4525.641026	4021.538462	4100.512821	4517.948718	4445.128205	4256.923077	3940.512821	1764.000000	1983.000000	23.387000	0.000000	0.000000	0.000000	0.000000	1	1	0	0	0	0	0	0	0	0	0	0	0	0	0	0
13.000000	4354.871795	4374.871795	4424.102564	3713.333333	4388.717949	4607.179487	4642.564103	4525.128205	4024.102564	4096.923077	4507.179487	4440.000000	4257.435897	3944.615385	1737.000000	1994.000000	23.387000	0.000000	0.000000	0.000000	0.000000	1	1	0	0	0	0	0	0	0	0	0	0	0	0	0	0
14.000000	4338.974359	4365.641026	4416.923077	3715.384615	4392.820513	4613.333333	4650.256410	4523.589744	4024.102564	4098.461538	4504.102564	4440.512821	4257.435897	3944.102564	1723.000000	1999.000000	23.403000	0.000000	0.000000	0.000000	0.000000	1	1	0	0	0	0	0	0	0	0	0	0	0	0	0	0
15.000000	4328.717949	4364.102564	4418.461538	3720.000000	4394.358974	4619.487179	4653.333333	4525.641026	4024.102564	4100.000000	4511.282051	4443.076923	4257.948718	3942.051282	1713.000000	1993.000000	23.403000	0.000000	0.000000	0.000000	0.000000	1	1	0	0	0	0	0	0	0	0	0	0	0	0	0	0
16.000000	4334.358974	4366.666667	4421.538462	3720.000000	4391.794872	4616.410256	4650.256410	4530.256410	4024.615385	4094.871795	4510.256410	4437.948718	4256.923077	3951.282051	1707.000000	1983.000000	23.418000	0.000000	0.000000	0.000000	0.000000	1	1	0	0	0	0	0	0	0	0	0	0	0	0	0	0
17.000000	4336.923077	4367.692308	4415.897436	3717.948718	4391.282051	4615.384615	4642.564103	4530.769231	4024.102564	4092.820513	4504.615385	4432.820513	4255.384615	3956.923077	1705.000000	1954.000000	23.418000	0.000000	0.000000	0.000000	0.000000	1	1	0	0	0	0	0	0	0	0	0	0	0	0	0	0
18.000000	4333.333333	4371.282051	4416.410256	3714.358974	4388.205128	4616.410256	4638.974359	4527.692308	4026.153846	4101.538462	4505.128205	4436.923077	4256.410256	3944.102564	1711.000000	1928.000000	23.434000	0.000000	0.000000	0.000000	0.000000	1	1	0	0	0	0	0	0	0	0	0	0	0	0	0	0
19.000000	4332.820513	4375.897436	4420.512821	3715.384615	4378.461538	4610.769231	4638.974359	4526.666667	4024.102564	4106.666667	4508.717949	4437.435897	4257.435897	3935.384615	1718.000000	1898.000000	23.434000	0.000000	0.000000	0.000000	0.000000	1	1	0	0	0	0	0	0	0	0	0	0	0	0	0	0
20.000000	4334.871795	4375.897436	4420.000000	3721.025641	4377.435897	4608.205128	4637.435897	4524.102564	4020.000000	4104.102564	4510.256410	4430.769231	4256.923077	3938.974359	1722.000000	1866.000000	23.449000	0.000000	0.000000	0.000000	0.000000	1	1	0	0	0	0	0	0	0	0	0	0	0	0	0	0
21.000000	4338.974359	4372.307692	4416.410256	3722.051282	4378.461538	4608.205128	4636.923077	4525.641026	4021.538462	4104.102564	4507.692308	4429.230769	4255.384615	3938.974359	1726.000000	1838.000000	23.449000	0.000000	0.000000	0.000000	0.000000	1	1	0	0	0	0	0	0	0	0	0	0	0	0	0	0
22.000000	4347.692308	4375.384615	4414.871795	3713.846154	4370.769231	4603.076923	4638.974359	4530.256410	4024.102564	4104.615385	4506.153846	4430.769231	4256.923077	3930.256410	1728.000000	1811.000000	23.465000	0.000000	0.000000	0.000000	0.000000	1	1	0	0	0	0	0	0	0	0	0	0	0	0	0	0
23.000000	4361.538462	4385.641026	4408.205128	3708.717949	4367.179487	4602.051282	4632.307692	4531.282051	4020.512821	4104.102564	4508.205128	4427.692308	4261.538462	3930.769231	1737.000000	1784.000000	23.465000	0.000000	0.000000	0.000000	0.000000	1	1	0	0	0	0	0	0	0	0	0	0	0	0	0	0
24.000000	4370.256410	4392.820513	4394.358974	3711.282051	4369.743590	4603.076923	4619.487179	4530.256410	4019.487179	4104.615385	4511.282051	4427.692308	4261.025641	3942.051282	1749.000000	1761.000000	23.481000	0.000000	0.000000	0.000000	0.000000	1	1	0	0	0	0	0	0	0	0	0	0	0	0	0	0
25.000000	4370.769231	4394.358974	4382.564103	3706.153846	4368.717949	4600.000000	4617.948718	4530.256410	4022.051282	4094.871795	4522.051282	4434.358974	4255.384615	3944.615385	1763.000000	1741.000000	23.486000	0.000000	0.000000	0.000000	0.000000	1	1	0	0	0	0	0	0	0	0	0	0	0	0	0	0
26.000000	4366.666667	4391.794872	4379.487179	3700.000000	4367.179487	4603.589744	4624.102564	4526.666667	4024.102564	4074.358974	4539.487179	4440.512821	4250.256410	3933.846154	1773.000000	1721.000000	23.486000	0.000000	0.000000	0.000000	0.000000	1	1	0	0	0	0	0	0	0	0	0	0	0	0	0	0
27.000000	4361.025641	4387.179487	4384.102564	3705.128205	4372.307692	4612.307692	4627.692308	4522.051282	4021.538462	4064.102564	4534.871795	4440.000000	4251.282051	3942.564103	1785.000000	1709.000000	23.501000	0.000000	0.000000	0.000000	0.000000	1	1	0	0	0	0	0	0	0	0	0	0	0	0	0	0
28.000000	4349.230769	4377.948718	4390.769231	3713.333333	4381.025641	4614.358974	4632.307692	4522.051282	4018.461538	4066.666667	4519.487179	4434.871795	4253.846154	3961.025641	1804.000000	1690.000000	23.501000	0.000000	0.000000	0.000000	0.000000	1	1	0	0	0	0	0	0	0	0	0	0	0	0	0	0
29.000000	4331.794872	4366.666667	4400.512821	3716.923077	4390.769231	4616.410256	4646.153846	4524.102564	4020.000000	4067.692308	4524.102564	4430.769231	4252.820513	3958.974359	1828.000000	1666.000000	23.517000	0.000000	0.000000	0.000000	0.000000	1	1	0	0	0	0	0	0	0	0	0	0	0	0	0	0
30.000000	4321.025641	4361.538462	4402.051282	3719.487179	4397.948718	4617.435897	4662.051282	4522.564103	4019.487179	4070.256410	4520.000000	4427.692308	4253.333333	3963.589744	1857.000000	1637.000000	23.517000	0.000000	0.000000	0.000000	0.000000	1	1	0	0	0	0	0	0	0	0	0	0	0	0	0	0
31.000000	4320.512821	4363.076923	4395.897436	3723.076923	4401.025641	4614.358974	4666.666667	4522.051282	4013.333333	4079.487179	4493.846154	4418.974359	4258.461538	3986.666667	1888.000000	1610.000000	23.532000	0.000000	0.000000	0.000000	0.000000	1	1	0	0	0	0	0	0	0	0	0	0	0	0	0	0
32.000000	4325.641026	4364.102564	4397.435897	3728.717949	4396.923077	4617.435897	4657.948718	4520.512821	4012.820513	4087.179487	4489.743590	4417.948718	4262.564103	3992.307692	1917.000000	1579.000000	23.532000	0.000000	0.000000	0.000000	0.000000	1	1	0	0	0	0	0	0	0	0	0	0	0	0	0	0
33.000000	4329.230769	4368.205128	4407.179487	3726.666667	4386.153846	4617.435897	4648.205128	4520.512821	4020.512821	4092.820513	4505.641026	4421.538462	4258.461538	3964.102564	1956.000000	1524.000000	23.548000	0.000000	0.000000	0.000000	0.000000	1	1	0	0	0	0	0	0	0	0	0	0	0	0	0	0
34.000000	4336.410256	4377.435897	4414.358974	3717.435897	4378.461538	4607.692308	4641.538462	4523.076923	4020.512821	4101.025641	4514.358974	4425.128205	4254.358974	3935.897436	1967.000000	1502.000000	23.548000	0.000000	0.000000	0.000000	0.000000	1	1	0	0	0	0	0	0	0	0	0	0	0	0	0	0
35.000000	4347.179487	4382.051282	4414.358974	3716.923077	4377.435897	4606.666667	4630.256410	4524.102564	4017.435897	4104.615385	4522.564103	4431.794872	4253.333333	3921.025641	1975.000000	1492.000000	23.564000	0.000000	0.000000	0.000000	0.000000	1	1	0	0	0	0	0	0	0	0	0	0	0	0	0	0
36.000000	4350.256410	4382.051282	4413.333333	3718.461538	4375.897436	4611.282051	4628.717949	4523.589744	4024.615385	4107.692308	4527.692308	4434.358974	4252.307692	3912.820513	1972.000000	1493.000000	23.564000	0.000000	0.000000	0.000000	0.000000	1	1	0	0	0	0	0	0	0	0	0	0	0	0	0	0
37.000000	4347.692308	4378.461538	4419.487179	3711.794872	4377.948718	4609.230769	4645.128205	4523.076923	4032.820513	4119.487179	4523.589744	4431.282051	4252.820513	3903.589744	1955.000000	1501.000000	23.579000	0.000000	0.000000	0.000000	0.000000	1	1	0	0	0	0	0	0	0	0	0	0	0	0	0	0
38.000000	4356.410256	4374.358974	4429.230769	3704.615385	4386.153846	4611.794872	4651.794872	4527.692308	4034.358974	4126.666667	4523.589744	4431.794872	4254.358974	3887.692308	1935.000000	1519.000000	23.579000	0.000000	0.000000	0.000000	0.000000	1	1	0	0	0	0	0	0	0	0	0	0	0	0	0	0
39.000000	4376.410256	4373.333333	4433.846154	3700.000000	4392.820513	4619.487179	4640.512821	4532.307692	4030.769231	4116.410256	4524.102564	4434.871795	4251.794872	3881.538462	1915.000000	1549.000000	23.600000	0.000000	0.000000	0.000000	0.000000	1	1	0	0	0	0	0	0	0	0	0	0	0	0	0	0
40.000000	4381.025641	4361.025641	4431.794872	3705.128205	4402.564103	4620.512821	4645.128205	4528.205128	4025.641026	4105.641026	4516.410256	4433.846154	4247.692308	3900.000000	1899.000000	1584.000000	23.604000	0.000000	0.000000	0.000000	0.000000	1	1	0	0	0	0	0	0	0	0	0	0	0	0	0	0
41.000000	4364.102564	4349.743590	4422.564103	3709.230769	4415.384615	4618.461538	4680.512821	4522.051282	4025.641026	4102.564103	4505.128205	4433.333333	4251.282051	3930.256410	1880.000000	1631.000000	23.604000	0.000000	0.000000	0.000000	0.000000	1	1	0	0	0	0	0	0	0	0	0	0	0	0	0	0
42.000000	4351.282051	4369.743590	4410.256410	3689.743590	4413.846154	4618.461538	4704.615385	4520.512821	4026.666667	4091.282051	4490.256410	4427.692308	4252.820513	3951.282051	1863.000000	1681.000000	23.619000	0.000000	0.000000	0.000000	0.000000	1	1	0	0	0	0	0	0	0	0	0	0	0	0	0	0
43.000000	4351.794872	4391.794872	4408.717949	3672.307692	4400.512821	4616.410256	4671.794872	4519.487179	4014.871795	4075.897436	4477.435897	4422.051282	4252.307692	3972.307692	1840.000000	1722.000000	23.619000	0.000000	0.000000	0.000000	0.000000	1	1	0	0	0	0	0	0	0	0	0	0	0	0	0	0
44.000000	4330.769231	4368.205128	4413.846154	3711.282051	4402.051282	4617.948718	4627.179487	4518.461538	4006.666667	4082.051282	4473.846154	4419.487179	4255.897436	4000.512821	1829.000000	1755.000000	23.635000	0.000000	0.000000	0.000000	0.000000	1	1	0	0	0	0	0	0	0	0	0	0	0	0	0	0
45.000000	4291.282051	4337.435897	4432.820513	3772.820513	4407.179487	4616.410256	4639.487179	4519.487179	4014.358974	4096.410256	4476.410256	4418.461538	4253.846154	4002.564103	1826.000000	1781.000000	23.635000	0.000000	0.000000	0.000000	0.000000	1	1	0	0	0	0	0	0	0	0	0	0	0	0	0	0
46.000000	4284.102564	4343.076923	4461.538462	3773.333333	4400.512821	4613.333333	4668.205128	4520.512821	4016.923077	4104.102564	4493.846154	4423.589744	4242.564103	3947.692308	1828.000000	1795.000000	23.651000	0.000000	0.000000	0.000000	0.000000	1	1	0	0	0	0	0	0	0	0	0	0	0	0	0	0
47.000000	4308.205128	4358.461538	4467.179487	3733.846154	4393.333333	4616.410256	4654.358974	4527.179487	4010.256410	4120.512821	4509.230769	4432.307692	4241.538462	3897.948718	1830.000000	1790.000000	23.651000	0.000000	0.000000	0.000000	0.000000	1	1	0	0	0	0	0	0	0	0	0	0	0	0	0	0
48.000000	4323.076923	4362.564103	4448.717949	3717.948718	4387.692308	4617.435897	4631.794872	4534.358974	4016.923077	4141.025641	4498.974359	4429.743590	4251.282051	3899.487179	1833.000000	1774.000000	23.666000	0.000000	0.000000	0.000000	0.000000	1	1	0	0	0	0	0	0	0	0	0	0	0	0	0	0
49.000000	4332.820513	4365.641026	4450.256410	3716.923077	4384.102564	4615.384615	4626.666667	4534.358974	4035.897436	4140.512821	4493.846154	4427.179487	4251.794872	3893.846154	1832.000000	1747.000000	23.666000	0.000000	0.000000	0.000000	0.000000	1	1	0	0	0	0	0	0	0	0	0	0	0	0	0	0
50.000000	4343.076923	4364.615385	4463.589744	3714.871795	4381.538462	4614.871795	4627.179487	4531.282051	4038.461538	4124.615385	4513.333333	4437.948718	4246.666667	3868.717949	1830.000000	1726.000000	23.682000	0.000000	0.000000	0.000000	0.000000	1	1	0	0	0	0	0	0	0	0	0	0	0	0	0	0
51.000000	4336.410256	4357.435897	4445.641026	3729.230769	4379.487179	4614.871795	4635.897436	4524.615385	4026.666667	4112.307692	4521.025641	4441.538462	4246.153846	3892.820513	1823.000000	1707.000000	23.682000	0.000000	0.000000	0.000000	0.000000	1	1	0	0	0	0	0	0	0	0	0	0	0	0	0	0
52.000000	4325.128205	4356.923077	4413.846154	3735.384615	4376.410256	4613.846154	4648.717949	4521.538462	4021.538462	4103.589744	4509.743590	4430.769231	4247.179487	3942.051282	1805.000000	1683.000000	23.702000	0.000000	0.000000	0.000000	0.000000	1	1	0	0	0	0	0	0	0	0	0	0	0	0	0	0
53.000000	4337.435897	4362.564103	4396.410256	3716.410256	4376.410256	4616.410256	4652.307692	4527.179487	4024.615385	4097.435897	4504.615385	4425.128205	4247.692308	3949.230769	1789.000000	1658.000000	23.702000	0.000000	0.000000	0.000000	0.000000	1	1	0	0	0	0	0	0	0	0	0	0	0	0	0	0
54.000000	4361.025641	4356.410256	4397.948718	3708.205128	4382.564103	4615.384615	4651.794872	4528.205128	4023.589744	4097.435897	4507.179487	4429.230769	4246.666667	3946.666667	1773.000000	1644.000000	23.717000	0.000000	0.000000	0.000000	0.000000	1	1	0	0	0	0	0	0	0	0	0	0	0	0	0	0
55.000000	4379.487179	4340.512821	4406.153846	3707.692308	4393.846154	4616.410256	4654.871795	4522.051282	4020.512821	4101.025641	4504.615385	4432.307692	4245.641026	3953.333333	1760.000000	1625.000000	23.717000	0.000000	0.000000	0.000000	0.000000	1	1	0	0	0	0	0	0	0	0	0	0	0	0	0	0
56.000000	4388.717949	4343.589744	4409.230769	3690.769231	4394.871795	4624.102564	4662.051282	4523.589744	4023.076923	4098.461538	4507.179487	4437.435897	4244.102564	3939.487179	1741.000000	1605.000000	23.733000	0.000000	0.000000	0.000000	0.000000	1	1	0	0	0	0	0	0	0	0	0	0	0	0	0	0
57.000000	4380.512821	4363.076923	4408.205128	3682.564103	4382.564103	4624.615385	4656.923077	4527.179487	4022.051282	4088.717949	4510.256410	4440.512821	4243.589744	3934.358974	1724.000000	1598.000000	23.733000	0.000000	0.000000	0.000000	0.000000	1	1	0	0	0	0	0	0	0	0	0	0	0	0	0	0
58.000000	4350.769231	4356.410256	4421.025641	3705.128205	4381.025641	4618.974359	4624.615385	4526.153846	4018.974359	4082.564103	4516.410256	4445.641026	4241.025641	3955.384615	1713.000000	1575.000000	23.749000	0.000000	0.000000	0.000000	0.000000	1	1	0	0	0	0	0	0	0	0	0	0	0	0	0	0
59.000000	4337.435897	4332.820513	4443.589744	3738.461538	4388.717949	4612.307692	4605.641026	4523.076923	4018.974359	4073.333333	4548.205128	4466.153846	4235.384615	3963.076923	1746.000000	1581.000000	23.749000	0.000000	0.000000	0.000000	0.000000	1	1	0	0	0	0	0	0	0	0	0	0	0	0	0	0
60.000000	4347.179487	4335.897436	4456.410256	3747.692308	4384.102564	4602.564103	4631.794872	4520.512821	4017.435897	4056.410256	4570.769231	4486.153846	4233.846154	3974.871795	1823.000000	1782.000000	23.764000	0.000000	0.000000	0.000000	0.000000	1	1	0	0	0	0	0	0	0	0	0	0	0	0	0	0
61.000000	4315.384615	4340.000000	4456.923077	3746.666667	4371.794872	4564.102564	4638.461538	4520.000000	4012.307692	4058.461538	4536.923077	4474.871795	4242.564103	4027.179487	1758.000000	1761.000000	23.764000	0.000000	0.000000	0.000000	0.000000	1	1	0	0	0	0	0	0	0	0	0	0	0	0	0	0
62.000000	4253.846154	4325.641026	4449.743590	3760.512821	4360.000000	4511.794872	4598.974359	4521.025641	4011.794872	4081.538462	4491.794872	4454.871795	4253.846154	4069.230769	1739.000000	1714.000000	23.780000	0.000000	0.000000	0.000000	0.000000	1	1	0	0	0	0	0	0	0	0	0	0	0	0	0	0
63.000000	4293.333333	4356.410256	4468.205128	3750.769231	4390.769231	4669.743590	4608.205128	4520.512821	4010.769231	4075.384615	4491.794872	4460.512821	4255.897436	4040.000000	1814.000000	1712.000000	23.780000	0.000000	0.000000	0.000000	0.000000	1	1	0	0	0	0	0	0	0	0	0	0	0	0	0	0
64.000000	4343.076923	4293.846154	4507.179487	3767.692308	4366.153846	4640.000000	4593.333333	4520.512821	4011.794872	4091.282051	4509.743590	4478.461538	4258.974359	4013.333333	1847.000000	1689.000000	23.796000	0.000000	0.000000	0.000000	0.000000	1	1	0	0	0	0	0	0	0	0	0	0	0	0	0	0
65.000000	4371.794872	4288.205128	4471.282051	3769.230769	4299.487179	4389.230769	4583.076923	4522.564103	4022.051282	4141.538462	4540.000000	4498.461538	4257.948718	4024.615385	1829.000000	1697.000000	23.796000	0.000000	0.000000	0.000000	0.000000	1	1	0	0	0	0	0	0	0	0	0	0	0	0	0	0
66.000000	4527.179487	4574.358974	4477.435897	3640.512821	4495.384615	5191.282051	4719.487179	4520.512821	4018.461538	4088.717949	4562.564103	4531.794872	4243.076923	3960.512821	1802.000000	1686.000000	23.812000	0.000000	0.000000	0.000000	0.000000	1	1	0	0	0	0	0	0	0	0	0	0	0	0	0	0
67.000000	4524.615385	4563.076923	4637.435897	3596.923077	4647.692308	6276.410256	4702.051282	4518.461538	4018.974359	4061.025641	4521.538462	4543.076923	4256.410256	3847.179487	1789.000000	1727.000000	23.816000	0.000000	0.000000	0.000000	0.000000	1	1	0	0	0	0	0	0	0	0	0	0	0	0	0	0
68.000000	4247.692308	4115.384615	4690.256410	3754.358974	4375.384615	5684.615385	4547.692308	4523.589744	4040.000000	4180.000000	4490.256410	4537.948718	4289.743590	3955.384615	1767.000000	1683.000000	23.816000	0.000000	0.000000	0.000000	0.000000	1	1	0	0	0	0	0	0	0	0	0	0	0	0	0	0
69.000000	4080.512821	3975.897436	4662.051282	3911.282051	4199.487179	4472.307692	4540.000000	4521.538462	4038.461538	4215.384615	4514.871795	4528.205128	4273.333333	4164.615385	1826.000000	1703.000000	23.831000	0.000000	0.000000	0.000000	0.000000	1	1	0	0	0	0	0	0	0	0	0	0	0	0	0	0
70.000000	4117.435897	4183.076923	4754.358974	3980.000000	4401.025641	4443.076923	4482.051282	4512.307692	4015.897436	4110.256410	4505.128205	4474.871795	4240.512821	4133.846154	1822.000000	1736.000000	23.831000	0.000000	0.000000	0.000000	0.000000	1	1	0	0	0	0	0	0	0	0	0	0	0	0	0	0
71.000000	4208.205128	4294.871795	4633.846154	3972.307692	4399.487179	4787.692308	4467.179487	4514.358974	4014.358974	4082.051282	4433.333333	4390.769231	4252.820513	4102.051282	1773.000000	1748.000000	23.847000	0.000000	0.000000	0.000000	0.000000	1	1	0	0	0	0	0	0	0	0	0	0	0	0	0	0
72.000000	4425.641026	4410.256410	4229.230769	3788.205128	4175.897436	4439.487179	4751.282051	4527.692308	4017.948718	4090.769231	4451.282051	4402.564103	4267.179487	4122.564103	1726.000000	1774.000000	23.847000	0.000000	0.000000	0.000000	0.000000	1	1	0	0	0	0	0	0	0	0	0	0	0	0	0	0
73.000000	4641.025641	4553.846154	4071.282051	3542.564103	4195.384615	4180.000000	4824.102564	4525.641026	4003.076923	3992.307692	4593.846154	4567.179487	4224.102564	3858.461538	1703.000000	1797.000000	23.863000	0.000000	0.000000	0.000000	0.000000	1	1	0	0	0	0	0	0	0	0	0	0	0	0	0	0
74.000000	4608.205128	4521.025641	4173.846154	3470.256410	4388.717949	4464.102564	4533.333333	4505.641026	3995.897436	3969.743590	4600.512821	4653.333333	4221.025641	3821.538462	1712.000000	1841.000000	23.863000	0.000000	0.000000	0.000000	0.000000	1	1	0	0	0	0	0	0	0	0	0	0	0	0	0	0
75.000000	4522.564103	4438.974359	4210.256410	3527.692308	4505.128205	4666.153846	4528.717949	4502.564103	4009.743590	4042.051282	4502.564103	4556.410256	4260.000000	4205.641026	1682.000000	1843.000000	23.878000	0.000000	0.000000	0.000000	0.000000	1	1	0	0	0	0	0	0	0	0	0	0	0	0	0	0
76.000000	4489.230769	4432.820513	4329.743590	3592.307692	4397.435897	4472.307692	4602.564103	4527.179487	4063.589744	4001.538462	4656.923077	4542.564103	4185.128205	3978.461538	1676.000000	1873.000000	23.878000	0.000000	0.000000	0.000000	0.000000	1	1	0	0	0	0	0	0	0	0	0	0	0	0	0	0
77.000000	4343.589744	4458.461538	4625.128205	3693.846154	4244.102564	4489.743590	4492.820513	4543.076923	4098.974359	3918.974359	4804.615385	4650.256410	4078.461538	3303.076923	1677.000000	1905.000000	23.894000	0.000000	0.000000	0.000000	0.000000	1	1	0	0	0	0	0	0	0	0	0	0	0	0	0	0
78.000000	4189.230769	4426.666667	4820.512821	3793.846154	4316.923077	4857.435897	4627.692308	4533.846154	4035.897436	3925.128205	4515.897436	4563.076923	4164.615385	3417.435897	1687.000000	1921.000000	23.894000	0.000000	0.000000	0.000000	0.000000	1	1	0	0	0	0	0	0	0	0	0	0	0	0	0	0
79.000000	4261.025641	4365.128205	4779.487179	3729.230769	4428.717949	4843.076923	4783.589744	4538.461538	3953.846154	3982.564103	4196.410256	4330.769231	4314.358974	3981.025641	1699.000000	1920.000000	23.910000	0.000000	0.000000	0.000000	0.000000	1	1	0	0	0	0	0	0	0	0	0	0	0	0	0	0
80.000000	4364.102564	4399.487179	4577.948718	3602.564103	4408.205128	4601.025641	4645.128205	4542.564103	3953.846154	4046.666667	4118.974359	4175.384615	4332.307692	4193.846154	1712.000000	1924.000000	23.910000	0.000000	0.000000	0.000000	0.000000	1	1	0	0	0	0	0	0	0	0	0	0	0	0	0	0
81.000000	4268.205128	4426.153846	4386.666667	3645.641026	4386.666667	4602.051282	4583.589744	4520.000000	4002.051282	4102.564103	4082.051282	4094.871795	4336.923077	4261.025641	1723.000000	1921.000000	23.926000	0.000000	0.000000	0.000000	0.000000	1	1	0	0	0	0	0	0	0	0	0	0	0	0	0	0
82.000000	4205.128205	4373.333333	4332.820513	3723.589744	4413.333333	4665.641026	4715.897436	4517.435897	4032.307692	4106.153846	4240.512821	4160.000000	4338.974359	4167.179487	1728.000000	1889.000000	23.930000	0.000000	0.000000	0.000000	0.000000	1	1	0	0	0	0	0	0	0	0	0	0	0	0	0	0
83.000000	4277.948718	4361.538462	4364.102564	3711.794872	4399.487179	4656.923077	4700.512821	4541.025641	4037.435897	4111.282051	4534.871795	4348.717949	4264.102564	3896.410256	1742.000000	1874.000000	23.930000	0.000000	0.000000	0.000000	0.000000	1	1	0	0	0	0	0	0	0	0	0	0	0	0	0	0
84.000000	4326.153846	4369.230769	4365.128205	3699.487179	4393.333333	4617.435897	4600.512821	4542.051282	4026.666667	4160.000000	4610.769231	4465.641026	4201.538462	3811.282051	1761.000000	1854.000000	23.945000	0.000000	0.000000	0.000000	0.000000	1	1	0	0	0	0	0	0	0	0	0	0	0	0	0	0
85.000000	4383.076923	4364.615385	4362.564103	3695.384615	4386.153846	4634.871795	4624.615385	4530.256410	4029.743590	4149.230769	4628.205128	4517.948718	4196.923077	3806.666667	1781.000000	1830.000000	23.945000	0.000000	0.000000	0.000000	0.000000	1	1	0	0	0	0	0	0	0	0	0	0	0	0	0	0
86.000000	4437.948718	4377.948718	4409.230769	3680.000000	4377.948718	4654.358974	4646.153846	4535.897436	4045.641026	4114.358974	4705.128205	4545.128205	4204.102564	3728.205128	1794.000000	1818.000000	23.961000	0.000000	0.000000	0.000000	0.000000	1	1	0	0	0	0	0	0	0	0	0	0	0	0	0	0
87.000000	4384.102564	4386.153846	4426.666667	3703.076923	4395.897436	4640.512821	4641.025641	4542.051282	4046.153846	4133.846154	4681.025641	4491.282051	4194.358974	3708.205128	1802.000000	1802.000000	23.961000	0.000000	0.000000	0.000000	0.000000	1	1	0	0	0	0	0	0	0	0	0	0	0	0	0	0
88.000000	4325.128205	4390.256410	4390.256410	3711.282051	4401.538462	4637.948718	4675.384615	4537.948718	4047.179487	4147.692308	4637.435897	4446.153846	4180.512821	3741.025641	1808.000000	1791.000000	23.977000	0.000000	0.000000	0.000000	0.000000	1	1	0	0	0	0	0	0	0	0	0	0	0	0	0	0
89.000000	4316.410256	4392.820513	4385.641026	3696.923077	4392.307692	4633.846154	4688.717949	4531.282051	4044.615385	4123.076923	4574.871795	4437.435897	4216.410256	3824.615385	1837.000000	1771.000000	23.977000	0.000000	0.000000	0.000000	0.000000	1	1	0	0	0	0	0	0	0	0	0	0	0	0	0	0
90.000000	4302.051282	4394.358974	4402.051282	3700.000000	4390.769231	4638.461538	4640.000000	4522.564103	4019.487179	4106.666667	4404.102564	4371.794872	4308.205128	4013.846154	1822.000000	1772.000000	23.992000	0.000000	0.000000	0.000000	0.000000	1	1	0	0	0	0	0	0	0	0	0	0	0	0	0	0
91.000000	4300.000000	4393.846154	4393.846154	3708.717949	4393.846154	4631.282051	4616.410256	4513.846154	3987.692308	4112.820513	4306.666667	4312.307692	4364.102564	4143.076923	1784.000000	1765.000000	23.992000	0.000000	0.000000	0.000000	0.000000	1	1	0	0	0	0	0	0	0	0	0	0	0	0	0	0
92.000000	4314.871795	4397.948718	4394.871795	3707.179487	4388.717949	4621.538462	4655.897436	4510.769231	3985.641026	4109.230769	4318.461538	4318.974359	4370.256410	4163.589744	1778.000000	1726.000000	24.008000	0.000000	0.000000	0.000000	0.000000	1	1	0	0	0	0	0	0	0	0	0	0	0	0	0	0
93.000000	4307.692308	4403.076923	4431.282051	3698.974359	4390.256410	4633.846154	4674.871795	4515.897436	4009.743590	4113.333333	4345.128205	4356.410256	4335.384615	4113.333333	1755.000000	1684.000000	24.023000	0.000000	0.000000	0.000000	0.000000	1	1	0	0	0	0	0	0	0	0	0	0	0	0	0	0
94.000000	4304.615385	4386.666667	4461.025641	3700.512821	4394.358974	4639.487179	4657.948718	4522.051282	4031.794872	4121.538462	4419.487179	4418.461538	4272.307692	3986.666667	1757.000000	1699.000000	24.023000	0.000000	0.000000	0.000000	0.000000	1	1	0	0	0	0	0	0	0	0	0	0	0	0	0	0
95.000000	4330.256410	4360.512821	4452.307692	3707.692308	4386.666667	4624.615385	4641.538462	4522.564103	4038.461538	4107.179487	4507.179487	4472.307692	4237.435897	3886.666667	1752.000000	1669.000000	24.023000	0.000000	0.000000	0.000000	0.000000	1	1	0	0	0	0	0	0	0	0	0	0	0	0	0	0
96.000000	4351.794872	4347.692308	4423.589744	3700.512821	4374.871795	4611.794872	4614.358974	4529.743590	4030.769231	4120.512821	4536.410256	4521.025641	4227.179487	3878.461538	1728.000000	1622.000000	24.044000	0.000000	0.000000	0.000000	0.000000	1	1	0	0	0	0	0	0	0	0	0	0	0	0	0	0
97.000000	4361.538462	4331.794872	4431.794872	3685.641026	4361.538462	4614.358974	4585.128205	4540.000000	4021.538462	4128.205128	4515.897436	4586.153846	4231.282051	3932.307692	1728.000000	1662.000000	24.044000	0.000000	0.000000	0.000000	0.000000	1	1	0	0	0	0	0	0	0	0	0	0	0	0	0	0
98.000000	4370.769231	4315.897436	4494.358974	3685.641026	4352.307692	4621.025641	4587.179487	4539.487179	4030.769231	4089.743590	4547.179487	4595.897436	4210.769231	3861.025641	1713.000000	1675.000000	24.060000	0.000000	0.000000	0.000000	0.000000	1	1	0	0	0	0	0	0	0	0	0	0	0	0	0	0
99.000000	4349.230769	4333.333333	4466.666667	3704.102564	4348.717949	4634.358974	4598.974359	4540.000000	4052.307692	4088.717949	4640.512821	4518.461538	4141.025641	3677.435897	1668.000000	1631.000000	24.060000	0.000000	0.000000	0.000000	0.000000	1	1	0	0	0	0	0	0	0	0	0	0	0	0	0	0
100.000000	4312.307692	4345.128205	4321.025641	3713.333333	4375.384615	4630.769231	4624.102564	4537.435897	4043.589744	4085.641026	4626.666667	4467.179487	4144.615385	3744.102564	1622.000000	1666.000000	24.075000	0.000000	0.000000	0.000000	0.000000	1	1	0	0	0	0	0	0	0	0	0	0	0	0	0	0
101.000000	4336.410256	4316.410256	4238.974359	3694.871795	4398.974359	4622.564103	4650.256410	4516.923077	4012.820513	3981.538462	4483.589744	4474.871795	4258.974359	4104.615385	1583.000000	1647.000000	24.075000	0.000000	0.000000	0.000000	0.000000	1	1	0	0	0	0	0	0	0	0	0	0	0	0	0	0
102.000000	4398.974359	4318.461538	4271.282051	3698.974359	4329.230769	4628.717949	4616.410256	4481.025641	4000.000000	3896.410256	4365.641026	4406.666667	4336.410256	4350.769231	1579.000000	1646.000000	24.091000	0.000000	0.000000	0.000000	0.000000	1	1	0	0	0	0	0	0	0	0	0	0	0	0	0	0
103.000000	4408.717949	4333.333333	4282.051282	3704.102564	4398.461538	4617.948718	4557.435897	4459.487179	3986.666667	3907.692308	4358.974359	4309.743590	4315.384615	4331.282051	1584.000000	1655.000000	24.091000	0.000000	0.000000	0.000000	0.000000	1	1	0	0	0	0	0	0	0	0	0	0	0	0	0	0
104.000000	4309.743590	4318.974359	4296.410256	3636.410256	4673.846154	4606.666667	4571.282051	4463.076923	3964.102564	3935.384615	4391.794872	4293.846154	4294.358974	4290.256410	1570.000000	1653.000000	24.107000	0.000000	0.000000	0.000000	0.000000	1	1	0	0	0	0	0	0	0	0	0	0	0	0	0	0
105.000000	4185.128205	4332.820513	4486.666667	3622.051282	4724.615385	4626.666667	4632.307692	4478.974359	3980.512821	3938.974359	4346.666667	4313.846154	4349.743590	4263.589744	1592.000000	1647.000000	24.107000	0.000000	0.000000	0.000000	0.000000	1	1	0	0	0	0	0	0	0	0	0	0	0	0	0	0
106.000000	4199.487179	4371.282051	4710.256410	3726.666667	4510.256410	4614.358974	4667.179487	4503.076923	3980.000000	4033.846154	4345.641026	4318.974359	4372.820513	4008.717949	1609.000000	1631.000000	24.122000	0.000000	0.000000	0.000000	0.000000	1	1	0	0	0	0	0	0	0	0	0	0	0	0	0	0
107.000000	4311.282051	4460.512821	4625.641026	3803.076923	4275.384615	4570.769231	4703.589744	4551.794872	3891.282051	4301.025641	4502.051282	4329.230769	4269.743590	3691.794872	1615.000000	1586.000000	24.122000	0.000000	0.000000	0.000000	0.000000	1	1	0	0	0	0	0	0	0	0	0	0	0	0	0	0
108.000000	4358.461538	4558.974359	4309.230769	3770.769231	4116.923077	4594.358974	4769.743590	4584.615385	3894.871795	4372.820513	4607.179487	4384.102564	4233.333333	3854.871795	1621.000000	1553.000000	24.138000	0.000000	0.000000	0.000000	0.000000	1	1	0	0	0	0	0	0	0	0	0	0	0	0	0	0
109.000000	4349.230769	4497.435897	4226.666667	3720.512821	4162.051282	4632.307692	4771.282051	4560.512821	4047.179487	4130.769231	4539.487179	4459.487179	4327.692308	4188.717949	1639.000000	1543.000000	24.138000	0.000000	0.000000	0.000000	0.000000	1	1	0	0	0	0	0	0	0	0	0	0	0	0	0	0
110.000000	4363.076923	4357.435897	4375.897436	3723.076923	4336.410256	4597.948718	4594.358974	4534.358974	4091.282051	4081.538462	4565.128205	4495.897436	4266.153846	4044.102564	1641.000000	1568.000000	24.154000	0.000000	0.000000	0.000000	0.000000	1	1	0	0	0	0	0	0	0	0	0	0	0	0	0	0
111.000000	4364.102564	4311.794872	4551.794872	3728.205128	4399.487179	4583.589744	4454.358974	4527.179487	4010.256410	4220.512821	4638.974359	4454.871795	4134.358974	3749.230769	1629.000000	1624.000000	24.158000	0.000000	0.000000	0.000000	0.000000	1	1	0	0	0	0	0	0	0	0	0	0	0	0	0	0
112.000000	4383.589744	4271.794872	4845.128205	3682.051282	4394.871795	4614.871795	4544.102564	4507.692308	4012.820513	4122.051282	4516.410256	4411.282051	4225.641026	3745.128205	1643.000000	1672.000000	24.158000	0.000000	0.000000	0.000000	0.000000	1	1	0	0	0	0	0	0	0	0	0	0	0	0	0	0
113.000000	4438.974359	4249.743590	4994.871795	3650.256410	4385.128205	4623.589744	4596.410256	4496.410256	4051.794872	3994.871795	4408.205128	4511.794872	4342.051282	3845.641026	1665.000000	1713.000000	24.174000	0.000000	0.000000	0.000000	0.000000	1	1	0	0	0	0	0	0	0	0	0	0	0	0	0	0
114.000000	4473.333333	4306.666667	4723.076923	3694.871795	4318.974359	4614.871795	4503.076923	4514.358974	4021.538462	4070.256410	4498.974359	4631.794872	4278.461538	3949.743590	1669.000000	1739.000000	24.174000	0.000000	0.000000	0.000000	0.000000	1	1	0	0	0	0	0	0	0	0	0	0	0	0	0	0
115.000000	4509.230769	4320.000000	4411.282051	3716.410256	4343.076923	4614.358974	4504.102564	4526.153846	4003.589744	4069.743590	4628.205128	4583.589744	4215.897436	4115.897436	1664.000000	1767.000000	24.189000	0.000000	0.000000	0.000000	0.000000	1	1	0	0	0	0	0	0	0	0	0	0	0	0	0	0
116.000000	4510.769231	4345.641026	4383.076923	3689.743590	4370.256410	4610.769231	4574.358974	4522.051282	4019.487179	4011.794872	4607.179487	4460.000000	4249.230769	4169.230769	1674.000000	1780.000000	24.189000	0.000000	0.000000	0.000000	0.000000	1	1	0	0	0	0	0	0	0	0	0	0	0	0	0	0
117.000000	4427.692308	4406.666667	4397.948718	3723.076923	4303.589744	4623.589744	4575.897436	4516.410256	4021.025641	4043.076923	4490.256410	4423.076923	4299.487179	4116.410256	1675.000000	1768.000000	24.205000	0.000000	0.000000	0.000000	0.000000	1	1	0	0	0	0	0	0	0	0	0	0	0	0	0	0
118.000000	4336.410256	4387.692308	4355.897436	3757.435897	4313.333333	4651.282051	4594.358974	4511.282051	4019.487179	4058.974359	4428.717949	4424.615385	4320.000000	4068.717949	1660.000000	1754.000000	24.205000	0.000000	0.000000	0.000000	0.000000	1	1	0	0	0	0	0	0	0	0	0	0	0	0	0	0
119.000000	4321.538462	4372.307692	4324.615385	3732.820513	4356.923077	4654.358974	4611.282051	4510.256410	4024.102564	4054.871795	4428.205128	4382.564103	4321.025641	4073.333333	1654.000000	1768.000000	24.221000	0.000000	0.000000	0.000000	0.000000	1	1	0	0	0	0	0	0	0	0	0	0	0	0	0	0
120.000000	4289.230769	4339.487179	4309.230769	3749.230769	4423.589744	4659.487179	4581.538462	4515.384615	4037.948718	4066.153846	4413.333333	4386.666667	4330.769231	4097.948718	1651.000000	1789.000000	24.221000	0.000000	0.000000	0.000000	0.000000	1	1	0	0	0	0	0	0	0	0	0	0	0	0	0	0
121.000000	4300.512821	4286.153846	4317.948718	3704.102564	4518.974359	4680.000000	4579.487179	4521.025641	4038.974359	4073.333333	4412.307692	4410.256410	4330.256410	4070.769231	1666.000000	1809.000000	24.236000	0.000000	0.000000	0.000000	0.000000	1	1	0	0	0	0	0	0	0	0	0	0	0	0	0	0
122.000000	4395.897436	4384.615385	4333.333333	3537.948718	4472.307692	4667.692308	4586.666667	4518.974359	4026.666667	4057.948718	4436.923077	4405.641026	4312.307692	4019.487179	1674.000000	1816.000000	24.236000	0.000000	0.000000	0.000000	0.000000	1	1	0	0	0	0	0	0	0	0	0	0	0	0	0	0
123.000000	4409.743590	4502.051282	4336.923077	3519.487179	4342.564103	4620.512821	4591.282051	4507.179487	4026.153846	4022.564103	4414.871795	4385.128205	4318.461538	4051.282051	1690.000000	1815.000000	24.252000	0.000000	0.000000	0.000000	0.000000	1	1	0	0	0	0	0	0	0	0	0	0	0	0	0	0
124.000000	4324.102564	4458.974359	4348.205128	3680.000000	4340.512821	4600.512821	4629.230769	4504.102564	4029.743590	4005.641026	4401.538462	4387.692308	4327.692308	4074.358974	1707.000000	1820.000000	24.252000	0.000000	0.000000	0.000000	0.000000	1	1	0	0	0	0	0	0	0	0	0	0	0	0	0	0
125.000000	4305.641026	4422.051282	4367.179487	3731.282051	4393.333333	4613.333333	4656.923077	4516.923077	4021.538462	4033.846154	4464.615385	4417.435897	4298.461538	3962.564103	1720.000000	1826.000000	24.272000	0.000000	0.000000	0.000000	0.000000	1	1	0	0	0	0	0	0	0	0	0	0	0	0	0	0
126.000000	4351.794872	4449.743590	4380.512821	3685.641026	4383.076923	4615.384615	4650.256410	4526.153846	4015.897436	4077.435897	4513.846154	4430.769231	4272.820513	3835.384615	1732.000000	1827.000000	24.272000	0.000000	0.000000	0.000000	0.000000	1	1	0	0	0	0	0	0	0	0	0	0	0	0	0	0
127.000000	4355.897436	4435.384615	4387.179487	3710.769231	4372.307692	4610.256410	4632.307692	4531.282051	4025.641026	4104.615385	4514.358974	4440.000000	4274.358974	3819.487179	1742.000000	1824.000000	24.288000	0.000000	0.000000	0.000000	0.000000	1	1	0	0	0	0	0	0	0	0	0	0	0	0	0	0
128.000000	4355.897436	4436.923077	4384.615385	3719.487179	4380.512821	4615.384615	4621.025641	4537.948718	4031.282051	4108.205128	4514.871795	4444.102564	4273.846154	3832.307692	1750.000000	1830.000000	24.288000	0.000000	0.000000	0.000000	0.000000	1	1	0	0	0	0	0	0	0	0	0	0	0	0	0	0
0.000000	4360.000000	4457.948718	4383.076923	3688.205128	4378.974359	4613.846154	4636.923077	4536.410256	4023.589744	4096.923077	4514.871795	4439.487179	4272.307692	3834.871795	1752.000000	1848.000000	24.303000	0.000000	0.000000	0.000000	0.000000	1	1	0	0	0	0	0	0	0	0	0	0	0	0	0	0
1.000000	4348.205128	4442.051282	4384.102564	3691.282051	4382.051282	4610.769231	4662.564103	4529.743590	4021.538462	4096.923077	4509.743590	4433.333333	4273.846154	3851.282051	1748.000000	1872.000000	24.303000	0.000000	0.000000	0.000000	0.000000	1	1	0	0	0	0	0	0	0	0	0	0	0	0	0	0
2.000000	4341.025641	4425.128205	4386.153846	3702.564103	4384.615385	4619.487179	4648.205128	4529.743590	4029.230769	4106.666667	4513.333333	4434.871795	4272.820513	3866.153846	1743.000000	1883.000000	24.319000	0.000000	0.000000	0.000000	0.000000	1	1	0	0	0	0	0	0	0	0	0	0	0	0	0	0
3.000000	4343.076923	4421.538462	4393.846154	3703.076923	4382.564103	4623.076923	4620.000000	4531.282051	4031.794872	4107.179487	4517.435897	4436.923077	4269.743590	3875.897436	1737.000000	1882.000000	24.319000	0.000000	0.000000	0.000000	0.000000	1	1	0	0	0	0	0	0	0	0	0	0	0	0	0	0
4.000000	4344.102564	4419.487179	4394.358974	3699.487179	4380.000000	4618.461538	4630.256410	4531.282051	4028.717949	4103.076923	4520.000000	4436.923077	4267.179487	3878.461538	1738.000000	1886.000000	24.334000	0.000000	0.000000	0.000000	0.000000	1	1	0	0	0	0	0	0	0	0	0	0	0	0	0	0
5.000000	4338.461538	4416.410256	4384.615385	3700.000000	4381.025641	4618.461538	4655.384615	4532.307692	4029.230769	4105.128205	4523.589744	4435.897436	4269.230769	3881.025641	1765.000000	1892.000000	24.334000	0.000000	0.000000	0.000000	0.000000	1	1	0	0	0	0	0	0	0	0	0	0	0	0	0	0
6.000000	4335.897436	4417.435897	4376.410256	3707.179487	4383.589744	4620.000000	4650.256410	4532.820513	4030.256410	4105.128205	4523.076923	4433.846154	4270.769231	3874.358974	1806.000000	1900.000000	24.350000	0.000000	0.000000	0.000000	0.000000	1	1	0	0	0	0	0	0	0	0	0	0	0	0	0	0
7.000000	4336.923077	4420.512821	4375.384615	3709.230769	4382.564103	4621.025641	4626.666667	4529.743590	4028.205128	4101.538462	4521.025641	4436.410256	4269.743590	3859.487179	1818.000000	1898.000000	24.350000	0.000000	0.000000	0.000000	0.000000	1	1	0	0	0	0	0	0	0	0	0	0	0	0	0	0
8.000000	4342.051282	4425.128205	4368.717949	3704.102564	4384.615385	4622.051282	4627.692308	4529.743590	4028.717949	4099.487179	4516.410256	4431.282051	4272.307692	3853.846154	1811.000000	1885.000000	24.366000	0.000000	0.000000	0.000000	0.000000	1	1	0	0	0	0	0	0	0	0	0	0	0	0	0	0
9.000000	4334.358974	4429.230769	4349.230769	3701.025641	4385.128205	4618.974359	4650.256410	4536.923077	4031.282051	4100.512821	4521.025641	4431.794872	4272.307692	3857.948718	1800.000000	1876.000000	24.366000	0.000000	0.000000	0.000000	0.000000	1	1	0	0	0	0	0	0	0	0	0	0	0	0	0	0
10.000000	4327.692308	4434.358974	4325.128205	3702.051282	4385.128205	4624.102564	4660.000000	4537.948718	4027.179487	4095.897436	4523.589744	4430.769231	4270.769231	3862.564103	1789.000000	1864.000000	24.382000	0.000000	0.000000	0.000000	0.000000	1	1	0	0	0	0	0	0	0	0	0	0	0	0	0	0
11.000000	4318.974359	4431.794872	4311.794872	3705.641026	4389.230769	4634.871795	4651.794872	4534.871795	4021.538462	4084.615385	4518.974359	4422.051282	4272.820513	3865.128205	1766.000000	1860.000000	24.386000	0.000000	0.000000	0.000000	0.000000	1	1	0	0	0	0	0	0	0	0	0	0	0	0	0	0
12.000000	4322.564103	4431.282051	4307.179487	3706.666667	4396.410256	4635.897436	4648.205128	4535.384615	4025.128205	4088.717949	4514.871795	4400.000000	4273.846154	3870.256410	1757.000000	1849.000000	24.386000	0.000000	0.000000	0.000000	0.000000	1	1	0	0	0	0	0	0	0	0	0	0	0	0	0	0
13.000000	4330.256410	4426.666667	4308.717949	3696.923077	4398.461538	4631.282051	4663.076923	4538.974359	4031.794872	4103.076923	4529.230769	4385.128205	4263.589744	3851.282051	1752.000000	1839.000000	24.401000	0.000000	0.000000	0.000000	0.000000	1	1	0	0	0	0	0	0	0	0	0	0	0	0	0	0
14.000000	4331.282051	4416.923077	4291.282051	3692.820513	4398.974359	4636.923077	4676.923077	4538.461538	4029.743590	4107.179487	4543.076923	4376.410256	4255.384615	3835.897436	1741.000000	1813.000000	24.401000	0.000000	0.000000	0.000000	0.000000	1	1	0	0	0	0	0	0	0	0	0	0	0	0	0	0
15.000000	4317.948718	4403.589744	4263.076923	3707.179487	4402.564103	4642.051282	4663.589744	4535.384615	4024.102564	4102.564103	4556.923077	4375.897436	4257.435897	3857.948718	1764.000000	1790.000000	24.417000	0.000000	0.000000	0.000000	0.000000	1	1	0	0	0	0	0	0	0	0	0	0	0	0	0	0
16.000000	4313.333333	4390.769231	4268.205128	3716.923077	4398.974359	4635.897436	4645.641026	4533.333333	4025.128205	4102.051282	4572.820513	4387.692308	4257.948718	3886.153846	1770.000000	1771.000000	24.417000	0.000000	0.000000	0.000000	0.000000	1	1	0	0	0	0	0	0	0	0	0	0	0	0	0	0
17.000000	4323.589744	4383.589744	4295.384615	3713.846154	4396.410256	4630.769231	4654.358974	4532.820513	4030.256410	4110.769231	4575.897436	4389.230769	4255.384615	3895.897436	1777.000000	1781.000000	24.433000	0.000000	0.000000	0.000000	0.000000	1	1	0	0	0	0	0	0	0	0	0	0	0	0	0	0
18.000000	4330.256410	4379.487179	4317.435897	3713.846154	4391.794872	4628.205128	4660.000000	4535.897436	4034.358974	4121.538462	4568.717949	4376.923077	4258.974359	3908.717949	1775.000000	1755.000000	24.433000	0.000000	0.000000	0.000000	0.000000	1	1	0	0	0	0	0	0	0	0	0	0	0	0	0	0
19.000000	4341.538462	4385.128205	4361.025641	3713.333333	4378.974359	4636.410256	4638.461538	4537.435897	4034.358974	4123.076923	4571.794872	4371.794872	4258.461538	3912.307692	1760.000000	1770.000000	24.448000	0.000000	0.000000	0.000000	0.000000	1	1	0	0	0	0	0	0	0	0	0	0	0	0	0	0
20.000000	4342.564103	4390.769231	4416.923077	3713.333333	4356.923077	4639.487179	4621.025641	4535.384615	4037.435897	4114.358974	4597.435897	4409.743590	4245.641026	3900.000000	1754.000000	1765.000000	24.448000	0.000000	0.000000	0.000000	0.000000	1	1	0	0	0	0	0	0	0	0	0	0	0	0	0	0
21.000000	4324.615385	4387.179487	4429.230769	3737.948718	4337.948718	4617.435897	4632.820513	4531.282051	4032.820513	4105.641026	4585.128205	4432.820513	4243.076923	3922.564103	1753.000000	1736.000000	24.464000	0.000000	0.000000	0.000000	0.000000	1	1	0	0	0	0	0	0	0	0	0	0	0	0	0	0
22.000000	4332.820513	4444.615385	4410.256410	3737.435897	4237.435897	4648.717949	4652.307692	4524.615385	4023.589744	4100.000000	4575.384615	4434.871795	4249.230769	3969.230769	1753.000000	1718.000000	24.464000	0.000000	0.000000	0.000000	0.000000	1	1	0	0	0	0	0	0	0	0	0	0	0	0	0	0
23.000000	4369.230769	4526.153846	4429.230769	3735.897436	4097.435897	4612.307692	4633.333333	4520.000000	4021.538462	4094.358974	4546.153846	4444.615385	4252.307692	3982.051282	1744.000000	1717.000000	24.480000	0.000000	0.000000	0.000000	0.000000	1	1	0	0	0	0	0	0	0	0	0	0	0	0	0	0
24.000000	4307.179487	4415.384615	4498.461538	3890.256410	4163.076923	4516.410256	4586.153846	4521.025641	4022.051282	4090.256410	4513.333333	4457.948718	4256.410256	3978.974359	1734.000000	1711.000000	24.480000	0.000000	0.000000	0.000000	0.000000	1	1	0	0	0	0	0	0	0	0	0	0	0	0	0	0
25.000000	4213.333333	4285.128205	4529.743590	4074.871795	4381.025641	4757.948718	4629.743590	4522.564103	4024.102564	4072.307692	4492.307692	4448.205128	4273.333333	3997.435897	1728.000000	1700.000000	24.500000	0.000000	0.000000	0.000000	0.000000	1	1	0	0	0	0	0	0	0	0	0	0	0	0	0	0
26.000000	4252.307692	4393.333333	4475.897436	3975.897436	4447.692308	5009.230769	4724.102564	4514.358974	4029.743590	4036.410256	4480.000000	4450.769231	4292.820513	4037.948718	1723.000000	1700.000000	24.500000	0.000000	0.000000	0.000000	0.000000	1	1	0	0	0	0	0	0	0	0	0	0	0	0	0	0
27.000000	4351.282051	4482.051282	4417.948718	3713.333333	4362.051282	4770.256410	4701.025641	4503.589744	4035.897436	4005.641026	4448.717949	4453.333333	4304.102564	4054.871795	1725.000000	1726.000000	24.500000	0.000000	0.000000	0.000000	0.000000	1	1	0	0	0	0	0	0	0	0	0	0	0	0	0	0
28.000000	4364.615385	4387.179487	4414.871795	3624.615385	4330.256410	4517.948718	4595.384615	4509.743590	4035.897436	4019.487179	4447.692308	4415.897436	4297.435897	4009.743590	1721.000000	1754.000000	24.515000	0.000000	0.000000	0.000000	0.000000	1	1	0	0	0	0	0	0	0	0	0	0	0	0	0	0
29.000000	4350.769231	4365.128205	4417.435897	3668.205128	4352.820513	4601.025641	4558.461538	4522.564103	4028.717949	4064.102564	4487.692308	4387.179487	4274.358974	3950.769231	1721.000000	1792.000000	24.531000	0.000000	0.000000	0.000000	0.000000	1	1	0	0	0	0	0	0	0	0	0	0	0	0	0	0
30.000000	4362.564103	4432.307692	4405.641026	3674.358974	4355.897436	4633.846154	4598.974359	4524.615385	4025.641026	4081.538462	4493.333333	4409.743590	4267.179487	3936.410256	1728.000000	1838.000000	24.531000	0.000000	0.000000	0.000000	0.000000	1	1	0	0	0	0	0	0	0	0	0	0	0	0	0	0
31.000000	4360.000000	4426.666667	4394.871795	3674.871795	4363.589744	4573.846154	4641.538462	4520.512821	4032.820513	4074.358974	4481.025641	4431.282051	4276.410256	3948.205128	1729.000000	1910.000000	24.547000	0.000000	0.000000	0.000000	0.000000	1	1	0	0	0	0	0	0	0	0	0	0	0	0	0	0
32.000000	4351.282051	4413.333333	4389.743590	3698.461538	4377.948718	4622.051282	4651.794872	4521.025641	4031.282051	4082.051282	4486.666667	4411.282051	4274.358974	3932.307692	1729.000000	1994.000000	24.547000	0.000000	0.000000	0.000000	0.000000	1	1	0	0	0	0	0	0	0	0	0	0	0	0	0	0
33.000000	4349.743590	4424.102564	4398.974359	3709.230769	4386.666667	4625.641026	4630.769231	4524.102564	4022.564103	4103.076923	4503.076923	4395.384615	4264.615385	3911.282051	1712.000000	1856.000000	24.547000	0.000000	0.000000	0.000000	0.000000	1	1	0	0	0	0	0	0	0	0	0	0	0	0	0	0
34.000000	4363.076923	4419.487179	4408.717949	3701.538462	4373.846154	4613.846154	4631.282051	4522.564103	4031.794872	4100.512821	4488.717949	4381.025641	4273.846154	3929.743590	1719.000000	1721.000000	24.562000	0.000000	0.000000	0.000000	0.000000	1	1	0	0	0	0	0	0	0	0	0	0	0	0	0	0
35.000000	4383.076923	4417.948718	4400.512821	3686.153846	4356.923077	4621.538462	4640.512821	4520.000000	4037.948718	4070.256410	4461.538462	4358.974359	4291.282051	3964.102564	1731.000000	1664.000000	24.578000	0.000000	0.000000	0.000000	0.000000	1	1	0	0	0	0	0	0	0	0	0	0	0	0	0	0
36.000000	4375.384615	4424.615385	4386.666667	3684.102564	4352.820513	4642.564103	4632.820513	4517.435897	4030.256410	4035.384615	4444.102564	4370.256410	4302.564103	3981.538462	1700.000000	1657.000000	24.578000	0.000000	0.000000	0.000000	0.000000	1	1	0	0	0	0	0	0	0	0	0	0	0	0	0	0
37.000000	4353.846154	4432.820513	4366.666667	3698.461538	4364.102564	4653.333333	4632.820513	4508.717949	4044.615385	4031.282051	4439.487179	4388.205128	4324.615385	4004.615385	1655.000000	1729.000000	24.593000	0.000000	0.000000	0.000000	0.000000	1	1	0	0	0	0	0	0	0	0	0	0	0	0	0	0
38.000000	4368.205128	4371.794872	4321.025641	3683.076923	4351.282051	4512.307692	4606.153846	4510.769231	4046.153846	3966.153846	4421.538462	4405.128205	4345.641026	4054.358974	1654.000000	1698.000000	24.593000	0.000000	0.000000	0.000000	0.000000	1	1	0	0	0	0	0	0	0	0	0	0	0	0	0	0
39.000000	4362.051282	4394.358974	4267.179487	3716.410256	4356.923077	4692.820513	4631.794872	4516.923077	4032.307692	3907.179487	4376.923077	4408.205128	4357.948718	4070.769231	1663.000000	1666.000000	24.609000	0.000000	0.000000	0.000000	0.000000	1	1	0	0	0	0	0	0	0	0	0	0	0	0	0	0
40.000000	4304.615385	4582.051282	4283.589744	3784.102564	4444.102564	4805.641026	4698.461538	4515.897436	4096.923077	4169.230769	4514.358974	4402.051282	4313.333333	3909.743590	1651.000000	1684.000000	24.614000	0.000000	0.000000	0.000000	0.000000	1	1	0	0	0	0	0	0	0	0	0	0	0	0	0	0
41.000000	4311.282051	4562.564103	4329.230769	3763.076923	4447.179487	4444.615385	4678.974359	4529.743590	4119.487179	4341.538462	4769.230769	4383.589744	4185.128205	3667.692308	1644.000000	1687.000000	24.614000	0.000000	0.000000	0.000000	0.000000	1	1	0	0	0	0	0	0	0	0	0	0	0	0	0	0
42.000000	4387.179487	4402.051282	4226.153846	3745.128205	4363.076923	4522.564103	4667.692308	4561.538462	4002.051282	4037.435897	4718.461538	4310.256410	4128.717949	3668.717949	1657.000000	1681.000000	24.629000	0.000000	0.000000	0.000000	0.000000	1	1	0	0	0	0	0	0	0	0	0	0	0	0	0	0
43.000000	4405.128205	4441.025641	4150.769231	3745.128205	4368.717949	4841.025641	4694.358974	4560.000000	3957.948718	3866.666667	4451.282051	4169.743590	4226.153846	3846.153846	1673.000000	1676.000000	24.629000	0.000000	0.000000	0.000000	0.000000	1	1	0	0	0	0	0	0	0	0	0	0	0	0	0	0
44.000000	4380.512821	4472.820513	4340.512821	3655.897436	4391.794872	4508.205128	4642.564103	4523.589744	4049.230769	4065.641026	4408.205128	4076.410256	4334.871795	3932.820513	1685.000000	1673.000000	24.645000	0.000000	0.000000	0.000000	0.000000	1	1	0	0	0	0	0	0	0	0	0	0	0	0	0	0
45.000000	4380.000000	4384.615385	4489.743590	3611.282051	4348.205128	4274.871795	4566.153846	4505.641026	4057.435897	4100.000000	4507.179487	4095.897436	4335.384615	3936.923077	1699.000000	1672.000000	24.645000	0.000000	0.000000	0.000000	0.000000	1	1	0	0	0	0	0	0	0	0	0	0	0	0	0	0
46.000000	4380.000000	4433.333333	4348.717949	3701.025641	4367.179487	4666.666667	4595.384615	4515.384615	3989.230769	3985.128205	4478.974359	4117.435897	4300.512821	3967.692308	1708.000000	1666.000000	24.660000	0.000000	0.000000	0.000000	0.000000	1	1	0	0	0	0	0	0	0	0	0	0	0	0	0	0
47.000000	4365.128205	4520.512821	4244.102564	3733.846154	4429.743590	4750.769231	4689.743590	4521.025641	3999.487179	4033.846154	4435.384615	4111.282051	4300.000000	3975.384615	1706.000000	1677.000000	24.660000	0.000000	0.000000	0.000000	0.000000	1	1	0	0	0	0	0	0	0	0	0	0	0	0	0	0
48.000000	4361.025641	4473.333333	4326.153846	3698.974359	4411.282051	4571.794872	4734.358974	4515.897436	4025.641026	4061.025641	4464.102564	4120.000000	4310.769231	3969.230769	1702.000000	1682.000000	24.676000	0.000000	0.000000	0.000000	0.000000	1	1	0	0	0	0	0	0	0	0	0	0	0	0	0	0
49.000000	4367.179487	4465.128205	4365.128205	3728.717949	4385.641026	4667.179487	4676.410256	4514.871795	4008.205128	4034.358974	4497.435897	4152.820513	4303.076923	3961.538462	1715.000000	1678.000000	24.676000	0.000000	0.000000	0.000000	0.000000	1	1	0	0	0	0	0	0	0	0	0	0	0	0	0	0
50.000000	4381.025641	4482.051282	4340.512821	3738.461538	4395.897436	4678.974359	4603.076923	4519.487179	3999.487179	4063.076923	4523.076923	4192.307692	4278.461538	3917.435897	1721.000000	1681.000000	24.692000	0.000000	0.000000	0.000000	0.000000	1	1	0	0	0	0	0	0	0	0	0	0	0	0	0	0
51.000000	4382.564103	4462.564103	4354.358974	3712.307692	4409.743590	4647.692308	4664.615385	4517.948718	4011.794872	4077.948718	4503.589744	4211.282051	4276.410256	3904.615385	1720.000000	1681.000000	24.692000	0.000000	0.000000	0.000000	0.000000	1	1	0	0	0	0	0	0	0	0	0	0	0	0	0	0
52.000000	4366.153846	4454.871795	4373.333333	3714.871795	4410.769231	4640.512821	4706.666667	4514.871795	4022.051282	4093.846154	4481.538462	4246.666667	4277.435897	3918.461538	1721.000000	1676.000000	24.707000	0.000000	0.000000	0.000000	0.000000	1	1	0	0	0	0	0	0	0	0	0	0	0	0	0	0
53.000000	4365.641026	4441.538462	4374.871795	3731.794872	4391.282051	4637.435897	4635.897436	4516.923077	4018.974359	4106.153846	4493.846154	4302.051282	4263.589744	3907.179487	1726.000000	1674.000000	24.707000	0.000000	0.000000	0.000000	0.000000	1	1	0	0	0	0	0	0	0	0	0	0	0	0	0	0
54.000000	4369.743590	4430.769231	4381.538462	3730.256410	4387.179487	4644.102564	4609.743590	4515.384615	4020.512821	4106.666667	4518.461538	4341.538462	4259.487179	3897.948718	1731.000000	1673.000000	24.724000	0.000000	0.000000	0.000000	0.000000	1	1	0	0	0	0	0	0	0	0	0	0	0	0	0	0
55.000000	4363.076923	4426.666667	4395.897436	3718.974359	4393.333333	4626.666667	4652.820513	4514.358974	4020.000000	4096.410256	4510.256410	4364.615385	4264.615385	3924.102564	1729.000000	1672.000000	24.728000	0.000000	0.000000	0.000000	0.000000	1	1	0	0	0	0	0	0	0	0	0	0	0	0	0	0
56.000000	4355.384615	4415.897436	4405.641026	3722.564103	4388.205128	4618.974359	4660.000000	4514.358974	4021.538462	4091.794872	4493.333333	4402.051282	4267.692308	3952.307692	1728.000000	1669.000000	24.728000	0.000000	0.000000	0.000000	0.000000	1	1	0	0	0	0	0	0	0	0	0	0	0	0	0	0
57.000000	4355.384615	4404.615385	4416.410256	3727.179487	4379.487179	4621.025641	4625.128205	4515.384615	4025.641026	4101.025641	4502.051282	4441.025641	4265.128205	3954.871795	1729.000000	1665.000000	24.744000	0.000000	0.000000	0.000000	0.000000	1	1	0	0	0	0	0	0	0	0	0	0	0	0	0	0
58.000000	4354.871795	4392.307692	4428.205128	3725.641026	4380.000000	4620.512821	4622.051282	4515.384615	4025.128205	4102.051282	4504.102564	4456.410256	4264.615385	3966.153846	1731.000000	1660.000000	24.744000	0.000000	0.000000	0.000000	0.000000	1	1	0	0	0	0	0	0	0	0	0	0	0	0	0	0
59.000000	4349.743590	4387.692308	4432.307692	3725.641026	4384.102564	4613.333333	4644.102564	4515.897436	4021.538462	4096.410256	4499.487179	4472.307692	4266.153846	3976.923077	1733.000000	1659.000000	24.759000	0.000000	0.000000	0.000000	0.000000	1	1	0	0	0	0	0	0	0	0	0	0	0	0	0	0
60.000000	4347.692308	4382.564103	4440.512821	3723.589744	4381.538462	4611.794872	4637.948718	4518.461538	4023.589744	4091.282051	4497.948718	4491.794872	4265.128205	3983.589744	1737.000000	1662.000000	24.759000	0.000000	0.000000	0.000000	0.000000	1	1	0	0	0	0	0	0	0	0	0	0	0	0	0	0
61.000000	4345.128205	4368.717949	4455.384615	3722.564103	4375.897436	4614.358974	4612.820513	4516.410256	4027.692308	4087.179487	4490.769231	4500.512821	4267.179487	4005.128205	1734.000000	1662.000000	24.775000	0.000000	0.000000	0.000000	0.000000	1	1	0	0	0	0	0	0	0	0	0	0	0	0	0	0
62.000000	4345.641026	4363.076923	4463.076923	3723.589744	4373.333333	4609.743590	4612.307692	4517.948718	4025.128205	4087.692308	4490.256410	4512.820513	4268.717949	4012.820513	1731.000000	1660.000000	24.775000	0.000000	0.000000	0.000000	0.000000	1	1	0	0	0	0	0	0	0	0	0	0	0	0	0	0
63.000000	4348.205128	4367.179487	4466.666667	3718.974359	4371.794872	4603.589744	4627.179487	4522.051282	4024.102564	4093.846154	4509.230769	4536.923077	4266.153846	3997.948718	1727.000000	1651.000000	24.791000	0.000000	0.000000	0.000000	0.000000	1	1	0	0	0	0	0	0	0	0	0	0	0	0	0	0
64.000000	4348.717949	4368.205128	4481.538462	3712.307692	4369.743590	4601.538462	4621.025641	4523.076923	4024.615385	4097.435897	4515.897436	4545.641026	4264.615385	3993.333333	1728.000000	1654.000000	24.791000	0.000000	0.000000	0.000000	0.000000	1	1	0	0	0	0	0	0	0	0	0	0	0	0	0	0
65.000000	4346.666667	4359.487179	4507.179487	3711.794872	4365.641026	4600.512821	4598.974359	4521.538462	4025.641026	4100.000000	4512.307692	4536.410256	4265.128205	4004.102564	1727.000000	1662.000000	24.806000	0.000000	0.000000	0.000000	0.000000	1	1	0	0	0	0	0	0	0	0	0	0	0	0	0	0
66.000000	4343.589744	4353.846154	4522.564103	3711.794872	4361.025641	4597.948718	4600.000000	4522.051282	4028.717949	4104.615385	4512.307692	4534.358974	4263.589744	4002.051282	1726.000000	1667.000000	24.806000	0.000000	0.000000	0.000000	0.000000	1	1	0	0	0	0	0	0	0	0	0	0	0	0	0	0
67.000000	4343.589744	4357.948718	4513.333333	3708.205128	4361.538462	4595.384615	4622.051282	4524.102564	4030.769231	4107.179487	4516.410256	4538.461538	4262.051282	3986.153846	1724.000000	1668.000000	24.822000	0.000000	0.000000	0.000000	0.000000	1	1	0	0	0	0	0	0	0	0	0	0	0	0	0	0
68.000000	4344.102564	4359.487179	4528.205128	3708.717949	4362.564103	4593.846154	4620.512821	4524.102564	4029.743590	4105.128205	4510.256410	4525.641026	4263.589744	3987.692308	1720.000000	1670.000000	24.822000	0.000000	0.000000	0.000000	0.000000	1	1	0	0	0	0	0	0	0	0	0	0	0	0	0	0
69.000000	4345.641026	4352.307692	4560.512821	3710.256410	4358.974359	4594.358974	4596.923077	4524.102564	4029.743590	4098.461538	4506.666667	4504.615385	4266.153846	4006.666667	1718.000000	1671.000000	24.842000	0.000000	0.000000	0.000000	0.000000	1	1	0	0	0	0	0	0	0	0	0	0	0	0	0	0
70.000000	4345.128205	4347.692308	4525.128205	3704.102564	4357.435897	4596.410256	4599.487179	4526.666667	4030.769231	4095.897436	4523.076923	4509.743590	4264.102564	3991.794872	1716.000000	1674.000000	24.842000	0.000000	0.000000	0.000000	0.000000	1	1	0	0	0	0	0	0	0	0	0	0	0	0	0	0
71.000000	4340.000000	4353.846154	4454.871795	3701.538462	4361.025641	4594.358974	4628.717949	4534.871795	4026.666667	4102.564103	4537.435897	4536.410256	4260.000000	3969.743590	1712.000000	1676.000000	24.857000	0.000000	0.000000	0.000000	0.000000	1	1	0	0	0	0	0	0	0	0	0	0	0	0	0	0
72.000000	4332.820513	4350.769231	4446.666667	3701.025641	4359.487179	4588.717949	4634.871795	4542.564103	4030.256410	4107.179487	4536.923077	4551.794872	4266.153846	3985.641026	1712.000000	1679.000000	24.857000	0.000000	0.000000	0.000000	0.000000	1	1	0	0	0	0	0	0	0	0	0	0	0	0	0	0
73.000000	4333.846154	4346.666667	4463.076923	3697.435897	4353.846154	4588.205128	4610.769231	4544.615385	4037.948718	4105.128205	4536.923077	4560.000000	4274.871795	4006.153846	1710.000000	1680.000000	24.873000	0.000000	0.000000	0.000000	0.000000	1	1	0	0	0	0	0	0	0	0	0	0	0	0	0	0
74.000000	4340.512821	4353.333333	4445.128205	3701.025641	4355.897436	4591.794872	4605.128205	4542.564103	4034.871795	4102.564103	4541.025641	4561.025641	4270.769231	3991.282051	1708.000000	1682.000000	24.873000	0.000000	0.000000	0.000000	0.000000	1	1	0	0	0	0	0	0	0	0	0	0	0	0	0	0
75.000000	4342.564103	4361.538462	4428.717949	3708.205128	4366.153846	4593.846154	4634.871795	4535.384615	4024.615385	4100.512821	4533.333333	4533.333333	4263.589744	3976.923077	1707.000000	1682.000000	24.889000	0.000000	0.000000	0.000000	0.000000	1	1	0	0	0	0	0	0	0	0	0	0	0	0	0	0
76.000000	4341.025641	4360.000000	4429.743590	3707.179487	4372.307692	4596.923077	4648.205128	4530.769231	4026.153846	4097.948718	4524.102564	4501.025641	4265.641026	3978.461538	1706.000000	1685.000000	24.889000	0.000000	0.000000	0.000000	0.000000	1	1	0	0	0	0	0	0	0	0	0	0	0	0	0	0
77.000000	4343.076923	4359.487179	4425.128205	3709.743590	4372.820513	4604.102564	4629.230769	4530.256410	4032.307692	4100.000000	4522.051282	4487.179487	4267.692308	3971.282051	1705.000000	1683.000000	24.904000	0.000000	0.000000	0.000000	0.000000	1	1	0	0	0	0	0	0	0	0	0	0	0	0	0	0
78.000000	4347.179487	4362.051282	4419.487179	3717.435897	4374.871795	4610.256410	4616.410256	4531.282051	4030.256410	4103.076923	4524.102564	4470.256410	4264.102564	3960.000000	1704.000000	1685.000000	24.912000	0.000000	0.000000	0.000000	0.000000	1	1	0	0	0	0	0	0	0	0	0	0	0	0	0	0
79.000000	4345.128205	4365.128205	4413.846154	3715.897436	4379.487179	4611.282051	4634.871795	4531.794872	4028.717949	4105.128205	4524.615385	4448.717949	4261.538462	3952.307692	1705.000000	1686.000000	24.920000	0.000000	0.000000	0.000000	0.000000	1	1	0	0	0	0	0	0	0	0	0	0	0	0	0	0
80.000000	4343.589744	4365.641026	4408.717949	3710.256410	4381.025641	4611.282051	4651.794872	4532.307692	4030.769231	4106.666667	4520.000000	4434.358974	4262.564103	3953.846154	1703.000000	1689.000000	24.928000	0.000000	0.000000	0.000000	0.000000	1	1	0	0	0	0	0	0	0	0	0	0	0	0	0	0
81.000000	4345.641026	4365.641026	4408.205128	3714.358974	4380.000000	4613.333333	4642.564103	4532.307692	4031.794872	4106.153846	4512.820513	4419.487179	4264.615385	3953.333333	1705.000000	1688.000000	24.932000	0.000000	0.000000	0.000000	0.000000	1	1	0	0	0	0	0	0	0	0	0	0	0	0	0	0
82.000000	4346.666667	4367.692308	4407.179487	3718.974359	4380.512821	4615.384615	4627.692308	4529.230769	4031.794872	4105.641026	4516.410256	4412.307692	4264.615385	3949.743590	1707.000000	1683.000000	24.932000	0.000000	0.000000	0.000000	0.000000	1	1	0	0	0	0	0	0	0	0	0	0	0	0	0	0
83.000000	4344.615385	4370.769231	4407.692308	3715.897436	4384.102564	4615.897436	4636.410256	4528.717949	4031.282051	4106.153846	4518.461538	4407.179487	4263.076923	3943.076923	1708.000000	1682.000000	24.953000	0.000000	0.000000	0.000000	0.000000	1	1	0	0	0	0	0	0	0	0	0	0	0	0	0	0
84.000000	4344.615385	4371.794872	4407.179487	3713.333333	4384.615385	4614.358974	4652.307692	4530.256410	4030.769231	4103.589744	4515.897436	4395.384615	4262.564103	3936.923077	1710.000000	1682.000000	24.954000	0.000000	0.000000	0.000000	0.000000	1	1	0	0	0	0	0	0	0	0	0	0	0	0	0	0
85.000000	4346.666667	4372.307692	4404.615385	3715.897436	4381.025641	4613.846154	4646.153846	4531.794872	4031.794872	4103.589744	4515.384615	4390.769231	4264.102564	3935.897436	1710.000000	1680.000000	24.969000	0.000000	0.000000	0.000000	0.000000	1	1	0	0	0	0	0	0	0	0	0	0	0	0	0	0
86.000000	4348.205128	4373.846154	4404.615385	3717.948718	4383.076923	4616.410256	4632.307692	4531.282051	4030.256410	4105.128205	4519.487179	4400.512821	4266.666667	3938.461538	1711.000000	1680.000000	24.969000	0.000000	0.000000	0.000000	0.000000	1	1	0	0	0	0	0	0	0	0	0	0	0	0	0	0
87.000000	4348.205128	4375.897436	4403.076923	3714.871795	4384.615385	4617.435897	4636.410256	4530.769231	4029.230769	4102.564103	4518.461538	4412.307692	4267.179487	3939.487179	1712.000000	1680.000000	24.985000	0.000000	0.000000	0.000000	0.000000	1	1	0	0	0	0	0	0	0	0	0	0	0	0	0	0
88.000000	4348.717949	4377.948718	4387.692308	3712.820513	4385.128205	4614.358974	4650.256410	4530.769231	4031.794872	4101.538462	4515.384615	4415.897436	4265.128205	3938.974359	1713.000000	1677.000000	24.985000	0.000000	0.000000	0.000000	0.000000	1	1	0	0	0	0	0	0	0	0	0	0	0	0	0	0
89.000000	4348.717949	4376.410256	4363.076923	3714.358974	4385.641026	4612.307692	4647.692308	4530.769231	4034.358974	4105.128205	4517.948718	4419.487179	4263.589744	3940.000000	1714.000000	1677.000000	24.985000	0.000000	0.000000	0.000000	0.000000	1	1	0	0	0	0	0	0	0	0	0	0	0	0	0	0
90.000000	4352.307692	4376.923077	4353.333333	3715.384615	4386.153846	4614.358974	4635.384615	4531.282051	4033.333333	4105.641026	4518.461538	4421.025641	4267.692308	3936.923077	1716.000000	1675.000000	25.000000	0.000000	0.000000	0.000000	0.000000	1	1	0	0	0	0	0	0	0	0	0	0	0	0	0	0
91.000000	4355.384615	4376.923077	4363.589744	3713.333333	4383.589744	4614.871795	4636.923077	4531.282051	4033.333333	4101.538462	4516.923077	4423.076923	4268.205128	3940.512821	1714.000000	1672.000000	25.016000	0.000000	0.000000	0.000000	0.000000	1	1	0	0	0	0	0	0	0	0	0	0	0	0	0	0
92.000000	4354.358974	4377.948718	4373.846154	3712.820513	4381.538462	4613.846154	4645.128205	4530.256410	4033.846154	4098.461538	4516.923077	4427.692308	4266.153846	3943.589744	1716.000000	1670.000000	25.016000	0.000000	0.000000	0.000000	0.000000	1	1	0	0	0	0	0	0	0	0	0	0	0	0	0	0
93.000000	4351.282051	4379.487179	4377.435897	3715.897436	4381.538462	4612.820513	4640.000000	4528.717949	4033.846154	4098.461538	4518.461538	4434.358974	4266.153846	3944.615385	1717.000000	1670.000000	25.032000	0.000000	0.000000	0.000000	0.000000	1	1	0	0	0	0	0	0	0	0	0	0	0	0	0	0
94.000000	4351.282051	4379.487179	4387.692308	3715.384615	4382.051282	4614.358974	4630.256410	4529.230769	4033.846154	4099.487179	4514.871795	4436.923077	4267.692308	3946.666667	1716.000000	1672.000000	25.032000	0.000000	0.000000	0.000000	0.000000	1	1	0	0	0	0	0	0	0	0	0	0	0	0	0	0
95.000000	4351.282051	4377.948718	4401.538462	3711.794872	4379.487179	4613.333333	4629.230769	4528.717949	4032.820513	4097.948718	4514.871795	4440.000000	4267.692308	3952.820513	1717.000000	1670.000000	25.047000	0.000000	0.000000	0.000000	0.000000	1	1	0	0	0	0	0	0	0	0	0	0	0	0	0	0
96.000000	4349.743590	4377.948718	4409.230769	3711.282051	4376.923077	4608.205128	4632.820513	4526.153846	4034.358974	4097.435897	4514.871795	4444.615385	4268.717949	3955.384615	1716.000000	1671.000000	25.047000	0.000000	0.000000	0.000000	0.000000	1	1	0	0	0	0	0	0	0	0	0	0	0	0	0	0
97.000000	4349.743590	4378.974359	4418.461538	3714.871795	4377.948718	4606.666667	4631.794872	4526.153846	4034.358974	4100.512821	4515.897436	4444.102564	4268.717949	3957.948718	1718.000000	1674.000000	25.063000	0.000000	0.000000	0.000000	0.000000	1	1	0	0	0	0	0	0	0	0	0	0	0	0	0	0
98.000000	4349.230769	4377.948718	4434.358974	3716.410256	4378.974359	4608.717949	4628.717949	4528.205128	4029.743590	4100.512821	4512.820513	4444.615385	4267.179487	3960.000000	1717.000000	1677.000000	25.067000	0.000000	0.000000	0.000000	0.000000	1	1	0	0	0	0	0	0	0	0	0	0	0	0	0	0
99.000000	4349.743590	4377.435897	4444.102564	3716.410256	4378.461538	4609.230769	4626.153846	4525.641026	4028.205128	4098.974359	4512.820513	4443.589744	4264.102564	3958.974359	1716.000000	1677.000000	25.067000	0.000000	0.000000	0.000000	0.000000	1	1	0	0	0	0	0	0	0	0	0	0	0	0	0	0
100.000000	4348.205128	4374.871795	4446.666667	3716.923077	4378.974359	4609.743590	4628.205128	4523.589744	4030.256410	4103.076923	4513.333333	4436.923077	4262.564103	3957.948718	1715.000000	1676.000000	25.086000	0.000000	0.000000	0.000000	0.000000	1	1	0	0	0	0	0	0	0	0	0	0	0	0	0	0
101.000000	4345.128205	4372.820513	4455.897436	3715.897436	4377.435897	4610.769231	4630.769231	4526.666667	4024.615385	4105.128205	4512.820513	4440.000000	4262.051282	3959.487179	1716.000000	1675.000000	25.094000	0.000000	0.000000	0.000000	0.000000	1	1	0	0	0	0	0	0	0	0	0	0	0	0	0	0
102.000000	4344.615385	4368.717949	4465.128205	3715.897436	4376.923077	4609.230769	4626.666667	4525.128205	4018.974359	4101.025641	4511.794872	4449.743590	4258.974359	3958.974359	1714.000000	1674.000000	25.102000	0.000000	0.000000	0.000000	0.000000	1	1	0	0	0	0	0	0	0	0	0	0	0	0	0	0
