Counter	AF3	F7	F3	FC5	T7	P7	O1	O2	P8	T8	FC6	F4	F8	AF4	GyroX	GyroY	Timestamp	FUNC_ID	FUNC_VALUE	MARKER	SYNC_SIGNAL	CMS_Q	DRL_Q	AF3_Q	F7_Q	F3_Q	FC5_Q	T7_Q	P7_Q	O1_Q	O2_Q	P8_Q	T8_Q	FC6_Q	F4_Q	F8_Q	AF4_Q
51.000000	4356.410256	4388.205128	4406.153846	3712.307692	4378.461538	4611.794872	4629.743590	4526.153846	4024.615385	4097.435897	4512.820513	4440.000000	4267.692308	3956.410256	1726.000000	1676.000000	98.338000	0.000000	0.000000	0.000000	0.000000	1	1	0	0	0	0	0	0	0	0	0	0	0	0	0	0
52.000000	4356.923077	4389.230769	4404.102564	3714.871795	4382.051282	4608.717949	4630.256410	4524.102564	4024.615385	4101.538462	4514.358974	4442.051282	4268.717949	3955.384615	1725.000000	1678.000000	98.338000	0.000000	0.000000	0.000000	0.000000	1	1	0	0	0	0	0	0	0	0	0	0	0	0	0	0
53.000000	4357.435897	4388.205128	4404.102564	3714.871795	4382.051282	4610.769231	4631.794872	4526.666667	4027.692308	4100.000000	4512.820513	4441.538462	4267.692308	3953.846154	1725.000000	1678.000000	98.354000	0.000000	0.000000	0.000000	0.000000	1	1	0	0	0	0	0	0	0	0	0	0	0	0	0	0
54.000000	4355.897436	4388.205128	4406.153846	3713.846154	4380.512821	4612.307692	4630.769231	4527.692308	4025.128205	4098.461538	4511.794872	4439.487179	4268.205128	3956.410256	1726.000000	1677.000000	98.354000	0.000000	0.000000	0.000000	0.000000	1	1	0	0	0	0	0	0	0	0	0	0	0	0	0	0
55.000000	4355.384615	4390.769231	4408.205128	3713.846154	4381.538462	4610.769231	4630.769231	4525.128205	4022.051282	4103.589744	4510.256410	4440.000000	4267.179487	3956.923077	1726.000000	1677.000000	98.370000	0.000000	0.000000	0.000000	0.000000	1	1	0	0	0	0	0	0	0	0	0	0	0	0	0	0
56.000000	4359.487179	4389.230769	4406.666667	3715.384615	4381.538462	4609.743590	4632.820513	4524.615385	4027.692308	4104.102564	4513.333333	4440.000000	4267.179487	3956.923077	1726.000000	1676.000000	98.370000	0.000000	0.000000	0.000000	0.000000	1	1	0	0	0	0	0	0	0	0	0	0	0	0	0	0
57.000000	4359.487179	4383.589744	4406.153846	3715.897436	4381.025641	4610.769231	4632.820513	4528.205128	4031.794872	4098.974359	4513.846154	4439.487179	4269.743590	3956.410256	1726.000000	1678.000000	98.385000	0.000000	0.000000	0.000000	0.000000	1	1	0	0	0	0	0	0	0	0	0	0	0	0	0	0
58.000000	4356.410256	4384.615385	4407.179487	3713.846154	4382.564103	4610.256410	4630.256410	4529.743590	4027.179487	4100.000000	4512.307692	4440.000000	4268.205128	3957.435897	1726.000000	1677.000000	98.385000	0.000000	0.000000	0.000000	0.000000	1	1	0	0	0	0	0	0	0	0	0	0	0	0	0	0
59.000000	4357.435897	4389.230769	4409.743590	3713.846154	4382.051282	4611.282051	4629.743590	4524.615385	4027.692308	4101.538462	4511.282051	4439.487179	4267.692308	3955.897436	1725.000000	1677.000000	98.401000	0.000000	0.000000	0.000000	0.000000	1	1	0	0	0	0	0	0	0	0	0	0	0	0	0	0
60.000000	4360.000000	4388.205128	4408.717949	3714.871795	4381.538462	4610.769231	4629.743590	4521.538462	4033.333333	4100.000000	4512.307692	4437.948718	4270.256410	3955.384615	1725.000000	1676.000000	98.401000	0.000000	0.000000	0.000000	0.000000	1	1	0	0	0	0	0	0	0	0	0	0	0	0	0	0
61.000000	4358.974359	4385.128205	4404.615385	3713.846154	4381.538462	4609.230769	4629.743590	4525.641026	4029.230769	4101.025641	4514.358974	4439.487179	4268.717949	3954.358974	1725.000000	1678.000000	98.417000	0.000000	0.000000	0.000000	0.000000	1	1	0	0	0	0	0	0	0	0	0	0	0	0	0	0
62.000000	4356.410256	4386.153846	4403.589744	3713.333333	4379.487179	4609.230769	4628.717949	4527.179487	4023.589744	4100.512821	4515.897436	4441.025641	4268.717949	3951.794872	1726.000000	1677.000000	98.421000	0.000000	0.000000	0.000000	0.000000	1	1	0	0	0	0	0	0	0	0	0	0	0	0	0	0
63.000000	4355.384615	4388.717949	4406.153846	3715.384615	4379.487179	4611.282051	4628.205128	4526.153846	4026.666667	4097.948718	4513.846154	4438.461538	4271.282051	3952.307692	1725.000000	1677.000000	98.421000	0.000000	0.000000	0.000000	0.000000	1	1	0	0	0	0	0	0	0	0	0	0	0	0	0	0
64.000000	4357.435897	4389.743590	4407.179487	3714.871795	4382.051282	4611.794872	4631.794872	4527.179487	4029.743590	4100.000000	4511.794872	4436.923077	4269.230769	3953.846154	1726.000000	1677.000000	98.436000	0.000000	0.000000	0.000000	0.000000	1	1	0	0	0	0	0	0	0	0	0	0	0	0	0	0
65.000000	4358.461538	4388.717949	4404.102564	3714.358974	4380.512821	4609.743590	4632.307692	4528.717949	4027.179487	4104.102564	4513.846154	4439.487179	4267.692308	3954.358974	1726.000000	1676.000000	98.436000	0.000000	0.000000	0.000000	0.000000	1	1	0	0	0	0	0	0	0	0	0	0	0	0	0	0
66.000000	4356.923077	4387.692308	4403.076923	3715.384615	4378.461538	4610.769231	4630.769231	4525.128205	4023.076923	4104.615385	4510.256410	4438.974359	4269.230769	3952.820513	1726.000000	1677.000000	98.452000	0.000000	0.000000	0.000000	0.000000	1	1	0	0	0	0	0	0	0	0	0	0	0	0	0	0
67.000000	4356.923077	4387.179487	4405.641026	3713.846154	4381.538462	4613.333333	4631.794872	4525.128205	4025.128205	4103.076923	4507.179487	4435.897436	4271.282051	3953.333333	1726.000000	1677.000000	98.452000	0.000000	0.000000	0.000000	0.000000	1	1	0	0	0	0	0	0	0	0	0	0	0	0	0	0
68.000000	4357.948718	4386.666667	4408.205128	3713.333333	4384.102564	4612.307692	4632.307692	4528.205128	4028.205128	4100.000000	4509.743590	4436.923077	4268.717949	3952.820513	1726.000000	1677.000000	98.468000	0.000000	0.000000	0.000000	0.000000	1	1	0	0	0	0	0	0	0	0	0	0	0	0	0	0
69.000000	4359.487179	4388.717949	4407.179487	3714.358974	4383.589744	4608.717949	4630.256410	4528.205128	4025.641026	4097.435897	4512.820513	4437.948718	4266.153846	3953.333333	1725.000000	1677.000000	98.468000	0.000000	0.000000	0.000000	0.000000	1	1	0	0	0	0	0	0	0	0	0	0	0	0	0	0
70.000000	4356.410256	4389.743590	4406.666667	3713.846154	4382.051282	4609.743590	4630.256410	4527.179487	4026.153846	4098.461538	4509.230769	4436.410256	4267.179487	3952.820513	1725.000000	1678.000000	98.483000	0.000000	0.000000	0.000000	0.000000	1	1	0	0	0	0	0	0	0	0	0	0	0	0	0	0
71.000000	4353.846154	4388.717949	4407.179487	3713.333333	4379.487179	4612.307692	4629.743590	4526.666667	4030.256410	4102.051282	4510.256410	4437.435897	4269.230769	3952.820513	1726.000000	1677.000000	98.483000	0.000000	0.000000	0.000000	0.000000	1	1	0	0	0	0	0	0	0	0	0	0	0	0	0	0
72.000000	4355.897436	4387.179487	4408.717949	3714.358974	4380.000000	4612.820513	4628.717949	4528.205128	4025.641026	4101.538462	4514.358974	4440.000000	4266.666667	3952.820513	1725.000000	1678.000000	98.499000	0.000000	0.000000	0.000000	0.000000	1	1	0	0	0	0	0	0	0	0	0	0	0	0	0	0
73.000000	4357.948718	4386.666667	4408.205128	3714.358974	4382.564103	4610.256410	4631.282051	4528.205128	4022.564103	4096.923077	4514.871795	4439.487179	4266.666667	3956.410256	1726.000000	1677.000000	98.499000	0.000000	0.000000	0.000000	0.000000	1	1	0	0	0	0	0	0	0	0	0	0	0	0	0	0
74.000000	4356.923077	4386.153846	4407.179487	3715.384615	4381.538462	4609.743590	4631.794872	4524.102564	4027.179487	4098.461538	4510.769231	4437.435897	4270.256410	3953.846154	1725.000000	1677.000000	98.515000	0.000000	0.000000	0.000000	0.000000	1	1	0	0	0	0	0	0	0	0	0	0	0	0	0	0
75.000000	4357.948718	4387.692308	4407.179487	3716.410256	4381.025641	4610.256410	4629.230769	4522.051282	4026.153846	4102.051282	4510.769231	4437.435897	4270.256410	3952.307692	1726.000000	1677.000000	98.515000	0.000000	0.000000	0.000000	0.000000	1	1	0	0	0	0	0	0	0	0	0	0	0	0	0	0
76.000000	4358.461538	4389.230769	4408.717949	3714.871795	4381.538462	4610.256410	4629.230769	4527.179487	4026.666667	4100.512821	4513.846154	4440.512821	4268.717949	3955.897436	1725.000000	1677.000000	98.535000	0.000000	0.000000	0.000000	0.000000	1	1	0	0	0	0	0	0	0	0	0	0	0	0	0	0
77.000000	4356.410256	4389.230769	4407.692308	3713.846154	4381.538462	4608.717949	4630.256410	4528.717949	4031.282051	4100.512821	4512.820513	4440.000000	4270.256410	3956.923077	1725.000000	1678.000000	98.535000	0.000000	0.000000	0.000000	0.000000	1	1	0	0	0	0	0	0	0	0	0	0	0	0	0	0
78.000000	4356.410256	4389.230769	4407.179487	3713.846154	4381.025641	4607.692308	4630.769231	4524.615385	4028.205128	4102.564103	4509.743590	4437.435897	4269.230769	3953.846154	1726.000000	1677.000000	98.550000	0.000000	0.000000	0.000000	0.000000	1	1	0	0	0	0	0	0	0	0	0	0	0	0	0	0
79.000000	4357.948718	4389.230769	4409.230769	3714.358974	4381.538462	4608.717949	4632.307692	4524.615385	4023.076923	4101.025641	4511.282051	4438.461538	4268.717949	3953.846154	1725.000000	1677.000000	98.550000	0.000000	0.000000	0.000000	0.000000	1	1	0	0	0	0	0	0	0	0	0	0	0	0	0	0
80.000000	4355.897436	4388.205128	4408.205128	3714.871795	4381.538462	4609.743590	4633.333333	4527.179487	4024.102564	4097.948718	4514.358974	4440.000000	4268.717949	3954.871795	1726.000000	1677.000000	98.566000	0.000000	0.000000	0.000000	0.000000	1	1	0	0	0	0	0	0	0	0	0	0	0	0	0	0
81.000000	4354.358974	4388.205128	4407.179487	3714.358974	4381.025641	4609.743590	4631.794872	4527.692308	4026.153846	4096.923077	4513.333333	4440.512821	4266.666667	3952.307692	1725.000000	1677.000000	98.566000	0.000000	0.000000	0.000000	0.000000	1	1	0	0	0	0	0	0	0	0	0	0	0	0	0	0
82.000000	4359.487179	4389.230769	4408.205128	3713.333333	4380.512821	4609.743590	4630.769231	4527.692308	4025.641026	4101.025641	4514.358974	4441.025641	4267.692308	3952.820513	1726.000000	1677.000000	98.581000	0.000000	0.000000	0.000000	0.000000	1	1	0	0	0	0	0	0	0	0	0	0	0	0	0	0
83.000000	4361.025641	4390.769231	4407.692308	3714.358974	4381.025641	4610.769231	4630.769231	4525.641026	4024.615385	4106.153846	4513.846154	4441.025641	4269.743590	3954.358974	1726.000000	1677.000000	98.581000	0.000000	0.000000	0.000000	0.000000	1	1	0	0	0	0	0	0	0	0	0	0	0	0	0	0
84.000000	4355.897436	4390.256410	4406.153846	3715.897436	4382.564103	4610.769231	4630.769231	4524.615385	4026.153846	4102.564103	4514.358974	4439.487179	4268.205128	3955.897436	1726.000000	1676.000000	98.597000	0.000000	0.000000	0.000000	0.000000	1	1	0	0	0	0	0	0	0	0	0	0	0	0	0	0
85.000000	4355.384615	4387.692308	4408.205128	3715.384615	4382.051282	4610.769231	4631.282051	4525.641026	4026.153846	4098.461538	4512.820513	4438.461538	4267.692308	3955.897436	1725.000000	1677.000000	98.597000	0.000000	0.000000	0.000000	0.000000	1	1	0	0	0	0	0	0	0	0	0	0	0	0	0	0
86.000000	4358.974359	4387.692308	4407.692308	3713.333333	4380.512821	4611.282051	4631.794872	4525.128205	4025.641026	4101.025641	4512.820513	4438.461538	4269.743590	3955.384615	1726.000000	1678.000000	98.613000	0.000000	0.000000	0.000000	0.000000	1	1	0	0	0	0	0	0	0	0	0	0	0	0	0	0
87.000000	4356.923077	4389.230769	4405.641026	3713.846154	4380.512821	4610.769231	4631.282051	4524.102564	4023.589744	4101.538462	4511.794872	4438.461538	4269.230769	3953.846154	1726.000000	1676.000000	98.613000	0.000000	0.000000	0.000000	0.000000	1	1	0	0	0	0	0	0	0	0	0	0	0	0	0	0
88.000000	4354.358974	4387.692308	4406.666667	3713.333333	4381.025641	4609.743590	4630.256410	4525.128205	4026.153846	4098.974359	4512.820513	4437.948718	4268.717949	3954.358974	1725.000000	1678.000000	98.628000	0.000000	0.000000	0.000000	0.000000	1	1	0	0	0	0	0	0	0	0	0	0	0	0	0	0
89.000000	4355.384615	4383.589744	4407.692308	3710.769231	4380.512821	4610.256410	4631.794872	4527.179487	4028.205128	4101.025641	4511.794872	4438.461538	4270.256410	3951.282051	1726.000000	1676.000000	98.628000	0.000000	0.000000	0.000000	0.000000	1	1	0	0	0	0	0	0	0	0	0	0	0	0	0	0
90.000000	4357.435897	4385.641026	4406.153846	3713.333333	4380.512821	4609.743590	4631.282051	4526.153846	4025.128205	4102.564103	4514.358974	4440.000000	4269.743590	3952.820513	1725.000000	1678.000000	98.644000	0.000000	0.000000	0.000000	0.000000	1	1	0	0	0	0	0	0	0	0	0	0	0	0	0	0
91.000000	4357.948718	4389.230769	4407.179487	3717.435897	4380.512821	4610.256410	4629.230769	4524.615385	4026.666667	4100.000000	4514.358974	4441.025641	4270.256410	3957.435897	1726.000000	1677.000000	98.649000	0.000000	0.000000	0.000000	0.000000	1	1	0	0	0	0	0	0	0	0	0	0	0	0	0	0
92.000000	4357.435897	4387.179487	4407.692308	3714.871795	4380.000000	4612.820513	4630.769231	4527.179487	4030.769231	4098.461538	4513.846154	4440.000000	4271.794872	3956.410256	1726.000000	1677.000000	98.649000	0.000000	0.000000	0.000000	0.000000	1	1	0	0	0	0	0	0	0	0	0	0	0	0	0	0
93.000000	4356.923077	4384.615385	4407.179487	3712.820513	4380.512821	4611.794872	4631.794872	4525.128205	4028.205128	4098.461538	4514.871795	4439.487179	4269.230769	3954.871795	1726.000000	1677.000000	98.664000	0.000000	0.000000	0.000000	0.000000	1	1	0	0	0	0	0	0	0	0	0	0	0	0	0	0
94.000000	4355.897436	4385.128205	4406.666667	3714.358974	4382.051282	4609.743590	4629.230769	4521.538462	4023.076923	4100.512821	4513.846154	4440.000000	4266.666667	3956.410256	1726.000000	1677.000000	98.664000	0.000000	0.000000	0.000000	0.000000	1	1	0	0	0	0	0	0	0	0	0	0	0	0	0	0
95.000000	4356.410256	4387.692308	4406.666667	3712.820513	4382.051282	4611.282051	4628.205128	4524.102564	4025.641026	4104.102564	4512.820513	4439.487179	4267.692308	3955.384615	1726.000000	1677.000000	98.680000	0.000000	0.000000	0.000000	0.000000	1	1	0	0	0	0	0	0	0	0	0	0	0	0	0	0
96.000000	4358.461538	4388.205128	4408.205128	3712.307692	4381.025641	4612.307692	4629.743590	4528.717949	4027.692308	4105.641026	4513.333333	4440.000000	4268.205128	3955.897436	1725.000000	1677.000000	98.680000	0.000000	0.000000	0.000000	0.000000	1	1	0	0	0	0	0	0	0	0	0	0	0	0	0	0
97.000000	4356.923077	4387.692308	4408.205128	3714.871795	4380.512821	4610.769231	4631.282051	4526.666667	4027.179487	4104.615385	4515.384615	4440.000000	4269.230769	3959.487179	1726.000000	1677.000000	98.695000	0.000000	0.000000	0.000000	0.000000	1	1	0	0	0	0	0	0	0	0	0	0	0	0	0	0
98.000000	4354.358974	4388.205128	4405.641026	3714.358974	4380.512821	4609.743590	4631.282051	4526.666667	4030.769231	4100.512821	4513.846154	4440.512821	4269.230769	3954.871795	1726.000000	1678.000000	98.695000	0.000000	0.000000	0.000000	0.000000	1	1	0	0	0	0	0	0	0	0	0	0	0	0	0	0
99.000000	4355.897436	4389.230769	4403.076923	3712.307692	4381.025641	4611.794872	4630.769231	4527.179487	4031.282051	4096.923077	4514.871795	4443.076923	4267.179487	3953.333333	1726.000000	1677.000000	98.711000	0.000000	0.000000	0.000000	0.000000	1	1	0	0	0	0	0	0	0	0	0	0	0	0	0	0
100.000000	4357.435897	4389.230769	4404.102564	3712.820513	4381.025641	4612.307692	4631.282051	4525.641026	4027.179487	4098.461538	4515.897436	4444.102564	4266.153846	3957.948718	1726.000000	1677.000000	98.711000	0.000000	0.000000	0.000000	0.000000	1	1	0	0	0	0	0	0	0	0	0	0	0	0	0	0
101.000000	4355.897436	4387.179487	4406.153846	3715.384615	4381.025641	4610.769231	4630.256410	4525.641026	4026.153846	4102.051282	4515.384615	4440.000000	4267.692308	3957.948718	1726.000000	1677.000000	98.727000	0.000000	0.000000	0.000000	0.000000	1	1	0	0	0	0	0	0	0	0	0	0	0	0	0	0
102.000000	4354.871795	4385.641026	4407.692308	3715.897436	4381.538462	4610.256410	4628.717949	4525.641026	4026.666667	4100.512821	4513.846154	4438.461538	4266.666667	3954.871795	1724.000000	1677.000000	98.727000	0.000000	0.000000	0.000000	0.000000	1	1	0	0	0	0	0	0	0	0	0	0	0	0	0	0
103.000000	4355.897436	4386.153846	4406.153846	3712.307692	4381.025641	4610.769231	4629.230769	4524.615385	4024.102564	4097.948718	4515.897436	4441.538462	4267.179487	3956.923077	1727.000000	1677.000000	98.742000	0.000000	0.000000	0.000000	0.000000	1	1	0	0	0	0	0	0	0	0	0	0	0	0	0	0
104.000000	4356.410256	4387.179487	4405.641026	3710.769231	4381.025641	4610.256410	4629.743590	4525.128205	4024.102564	4099.487179	4515.897436	4441.025641	4267.692308	3956.923077	1725.000000	1677.000000	98.742000	0.000000	0.000000	0.000000	0.000000	1	1	0	0	0	0	0	0	0	0	0	0	0	0	0	0
105.000000	4357.435897	4388.717949	4408.205128	3713.846154	4379.487179	4608.717949	4627.179487	4525.641026	4027.179487	4100.000000	4515.384615	4439.487179	4268.205128	3956.410256	1726.000000	1677.000000	98.762000	0.000000	0.000000	0.000000	0.000000	1	1	0	0	0	0	0	0	0	0	0	0	0	0	0	0
106.000000	4356.410256	4388.717949	4409.230769	3715.897436	4377.948718	4610.256410	4627.692308	4526.666667	4026.666667	4099.487179	4514.358974	4440.512821	4269.743590	3955.384615	1725.000000	1676.000000	98.766000	0.000000	0.000000	0.000000	0.000000	1	1	0	0	0	0	0	0	0	0	0	0	0	0	0	0
107.000000	4355.384615	4387.692308	4405.641026	3715.384615	4381.025641	4610.769231	4631.282051	4526.666667	4025.128205	4100.000000	4513.846154	4441.025641	4270.256410	3954.871795	1725.000000	1678.000000	98.766000	0.000000	0.000000	0.000000	0.000000	1	1	0	0	0	0	0	0	0	0	0	0	0	0	0	0
108.000000	4356.410256	4387.692308	4406.666667	3714.358974	4383.589744	4610.256410	4630.769231	4525.641026	4024.615385	4099.487179	4513.333333	4440.000000	4269.230769	3956.923077	1726.000000	1676.000000	98.782000	0.000000	0.000000	0.000000	0.000000	1	1	0	0	0	0	0	0	0	0	0	0	0	0	0	0
109.000000	4358.974359	4387.692308	4408.205128	3713.333333	4381.538462	4609.743590	4628.205128	4525.641026	4025.641026	4098.974359	4514.358974	4438.461538	4269.743590	3957.948718	1725.000000	1677.000000	98.782000	0.000000	0.000000	0.000000	0.000000	1	1	0	0	0	0	0	0	0	0	0	0	0	0	0	0
110.000000	4356.923077	4387.179487	4406.666667	3713.846154	4379.487179	4610.769231	4627.692308	4523.589744	4026.666667	4099.487179	4514.871795	4439.487179	4269.743590	3955.384615	1726.000000	1677.000000	98.798000	0.000000	0.000000	0.000000	0.000000	1	1	0	0	0	0	0	0	0	0	0	0	0	0	0	0
111.000000	4354.871795	4387.692308	4406.153846	3714.358974	4381.538462	4609.743590	4628.205128	4522.564103	4026.153846	4100.512821	4514.358974	4440.512821	4268.717949	3952.820513	1725.000000	1677.000000	98.798000	0.000000	0.000000	0.000000	0.000000	1	1	0	0	0	0	0	0	0	0	0	0	0	0	0	0
112.000000	4356.410256	4387.692308	4405.641026	3713.846154	4381.538462	4609.230769	4627.692308	4523.589744	4026.666667	4101.025641	4513.846154	4440.512821	4269.230769	3955.384615	1726.000000	1677.000000	98.813000	0.000000	0.000000	0.000000	0.000000	1	1	0	0	0	0	0	0	0	0	0	0	0	0	0	0
113.000000	4357.435897	4387.179487	4406.666667	3713.846154	4381.538462	4610.769231	4629.230769	4522.051282	4029.230769	4100.512821	4513.333333	4440.512821	4270.256410	3957.435897	1725.000000	1677.000000	98.813000	0.000000	0.000000	0.000000	0.000000	1	1	0	0	0	0	0	0	0	0	0	0	0	0	0	0
114.000000	4357.435897	4384.615385	4406.153846	3714.871795	4381.538462	4611.794872	4628.205128	4522.051282	4027.179487	4099.487179	4516.410256	4438.974359	4270.769231	3957.435897	1726.000000	1677.000000	98.829000	0.000000	0.000000	0.000000	0.000000	1	1	0	0	0	0	0	0	0	0	0	0	0	0	0	0
115.000000	4355.897436	4384.615385	4406.666667	3714.358974	4381.025641	4610.769231	4629.230769	4529.230769	4023.589744	4101.025641	4515.897436	4441.025641	4268.205128	3956.923077	1726.000000	1677.000000	98.829000	0.000000	0.000000	0.000000	0.000000	1	1	0	0	0	0	0	0	0	0	0	0	0	0	0	0
116.000000	4354.358974	4386.153846	4406.666667	3712.820513	4381.025641	4609.230769	4631.282051	4529.230769	4026.666667	4102.564103	4514.871795	4445.128205	4266.666667	3959.487179	1726.000000	1677.000000	98.845000	0.000000	0.000000	0.000000	0.000000	1	1	0	0	0	0	0	0	0	0	0	0	0	0	0	0
117.000000	4354.871795	4384.615385	4408.717949	3713.333333	4382.051282	4610.256410	4630.769231	4521.538462	4026.666667	4101.025641	4512.307692	4442.564103	4267.692308	3955.897436	1726.000000	1676.000000	98.845000	0.000000	0.000000	0.000000	0.000000	1	1	0	0	0	0	0	0	0	0	0	0	0	0	0	0
118.000000	4355.384615	4385.128205	4408.205128	3714.871795	4382.564103	4612.307692	4629.230769	4522.051282	4022.564103	4099.487179	4513.846154	4438.974359	4268.205128	3953.846154	1725.000000	1678.000000	98.865000	0.000000	0.000000	0.000000	0.000000	1	1	0	0	0	0	0	0	0	0	0	0	0	0	0	0
119.000000	4353.846154	4391.794872	4405.128205	3714.871795	4382.051282	4611.794872	4630.769231	4527.692308	4023.589744	4101.025641	4515.897436	4441.538462	4267.179487	3955.897436	1726.000000	1676.000000	98.865000	0.000000	0.000000	0.000000	0.000000	1	1	0	0	0	0	0	0	0	0	0	0	0	0	0	0
120.000000	4353.333333	4391.282051	4404.615385	3714.871795	4381.538462	4610.769231	4630.256410	4526.666667	4027.179487	4102.051282	4518.461538	4442.564103	4267.692308	3956.923077	1725.000000	1677.000000	98.880000	0.000000	0.000000	0.000000	0.000000	1	1	0	0	0	0	0	0	0	0	0	0	0	0	0	0
121.000000	4355.384615	4385.641026	4408.717949	3715.384615	4382.564103	4611.282051	4629.743590	4522.051282	4028.205128	4100.000000	4518.461538	4438.974359	4269.743590	3953.333333	1726.000000	1677.000000	98.880000	0.000000	0.000000	0.000000	0.000000	1	1	0	0	0	0	0	0	0	0	0	0	0	0	0	0
122.000000	4357.435897	4389.230769	4411.282051	3714.358974	4381.538462	4610.769231	4630.256410	4523.076923	4026.666667	4099.487179	4516.410256	4438.974359	4269.230769	3954.871795	1726.000000	1676.000000	98.896000	0.000000	0.000000	0.000000	0.000000	1	1	0	0	0	0	0	0	0	0	0	0	0	0	0	0
123.000000	4356.923077	4390.769231	4409.230769	3713.333333	4379.487179	4608.717949	4630.769231	4528.717949	4026.666667	4101.538462	4513.333333	4440.512821	4267.692308	3957.435897	1727.000000	1677.000000	98.896000	0.000000	0.000000	0.000000	0.000000	1	1	0	0	0	0	0	0	0	0	0	0	0	0	0	0
124.000000	4357.435897	4386.666667	4406.666667	3713.846154	4380.000000	4609.743590	4630.256410	4528.205128	4028.205128	4100.000000	4514.871795	4441.025641	4269.743590	3956.923077	1726.000000	1677.000000	98.912000	0.000000	0.000000	0.000000	0.000000	1	1	0	0	0	0	0	0	0	0	0	0	0	0	0	0
125.000000	4356.923077	4387.179487	4407.692308	3714.358974	4380.512821	4611.794872	4628.717949	4526.153846	4029.230769	4097.435897	4515.897436	4443.076923	4270.256410	3954.871795	1726.000000	1677.000000	98.912000	0.000000	0.000000	0.000000	0.000000	1	1	0	0	0	0	0	0	0	0	0	0	0	0	0	0
126.000000	4356.923077	4390.256410	4409.230769	3713.846154	4381.025641	4611.794872	4628.205128	4526.153846	4027.179487	4100.000000	4512.307692	4442.051282	4267.179487	3955.897436	1725.000000	1677.000000	98.927000	0.000000	0.000000	0.000000	0.000000	1	1	0	0	0	0	0	0	0	0	0	0	0	0	0	0
127.000000	4357.948718	4388.205128	4408.717949	3713.846154	4382.051282	4610.256410	4628.205128	4527.692308	4027.179487	4101.025641	4510.256410	4440.512821	4266.666667	3957.948718	1726.000000	1678.000000	98.927000	0.000000	0.000000	0.000000	0.000000	1	1	0	0	0	0	0	0	0	0	0	0	0	0	0	0
128.000000	4358.461538	4386.666667	4407.692308	3714.871795	4381.025641	4610.256410	4629.230769	4527.692308	4027.692308	4099.487179	4511.794872	4438.974359	4269.743590	3957.948718	1726.000000	1676.000000	98.943000	0.000000	0.000000	0.000000	0.000000	1	1	0	0	0	0	0	0	0	0	0	0	0	0	0	0
0.000000	4355.897436	4389.230769	4408.717949	3715.384615	4381.025641	4610.769231	4629.230769	4527.179487	4026.666667	4102.051282	4513.333333	4437.948718	4269.230769	3956.923077	1724.000000	1677.000000	98.943000	0.000000	0.000000	0.000000	0.000000	1	1	0	0	0	0	0	0	0	0	0	0	0	0	0	0
1.000000	4354.871795	4389.743590	4409.230769	3713.333333	4382.564103	4611.282051	4628.717949	4526.666667	4028.717949	4101.025641	4513.333333	4438.974359	4266.666667	3956.410256	1727.000000	1676.000000	98.959000	0.000000	0.000000	0.000000	0.000000	1	1	0	0	0	0	0	0	0	0	0	0	0	0	0	0
2.000000	4356.923077	4387.179487	4406.666667	3712.307692	4381.025641	4610.769231	4628.717949	4526.153846	4029.743590	4096.410256	4516.410256	4439.487179	4267.692308	3955.897436	1726.000000	1677.000000	98.959000	0.000000	0.000000	0.000000	0.000000	1	1	0	0	0	0	0	0	0	0	0	0	0	0	0	0
3.000000	4356.410256	4387.179487	4406.153846	3714.358974	4380.000000	4610.769231	4630.769231	4526.666667	4027.692308	4098.461538	4515.384615	4439.487179	4269.743590	3955.897436	1727.000000	1677.000000	98.975000	0.000000	0.000000	0.000000	0.000000	1	1	0	0	0	0	0	0	0	0	0	0	0	0	0	0
4.000000	4356.410256	4388.205128	4407.692308	3715.384615	4380.000000	4610.256410	4631.282051	4527.179487	4025.641026	4102.564103	4514.871795	4440.000000	4268.717949	3958.461538	1726.000000	1676.000000	98.979000	0.000000	0.000000	0.000000	0.000000	1	1	0	0	0	0	0	0	0	0	0	0	0	0	0	0
5.000000	4355.897436	4386.153846	4408.205128	3713.333333	4380.000000	4608.717949	4630.256410	4526.666667	4026.666667	4099.487179	4515.384615	4441.025641	4268.205128	3956.923077	1726.000000	1677.000000	98.979000	0.000000	0.000000	0.000000	0.000000	1	1	0	0	0	0	0	0	0	0	0	0	0	0	0	0
6.000000	4354.358974	4387.179487	4407.179487	3713.333333	4380.000000	4609.230769	4627.692308	4524.615385	4027.692308	4096.923077	4517.435897	4441.025641	4269.743590	3957.948718	1725.000000	1677.000000	98.994000	0.000000	0.000000	0.000000	0.000000	1	1	0	0	0	0	0	0	0	0	0	0	0	0	0	0
7.000000	4354.358974	4389.743590	4408.205128	3713.846154	4380.000000	4611.282051	4627.179487	4525.641026	4026.153846	4100.000000	4513.846154	4441.538462	4268.717949	3957.948718	1725.000000	1677.000000	98.994000	0.000000	0.000000	0.000000	0.000000	1	1	0	0	0	0	0	0	0	0	0	0	0	0	0	0
8.000000	4354.358974	4389.230769	4407.179487	3714.358974	4380.000000	4609.230769	4629.230769	4526.666667	4024.615385	4098.974359	4512.820513	4439.487179	4266.666667	3956.410256	1726.000000	1677.000000	99.010000	0.000000	0.000000	0.000000	0.000000	1	1	0	0	0	0	0	0	0	0	0	0	0	0	0	0
9.000000	4355.384615	4388.205128	4406.153846	3714.871795	4381.025641	4608.717949	4631.282051	4523.076923	4025.641026	4098.461538	4516.410256	4437.948718	4267.179487	3955.897436	1726.000000	1677.000000	99.010000	0.000000	0.000000	0.000000	0.000000	1	1	0	0	0	0	0	0	0	0	0	0	0	0	0	0
10.000000	4358.461538	4389.230769	4406.153846	3714.358974	4381.538462	4610.256410	4631.794872	4522.564103	4028.205128	4101.025641	4516.923077	4441.025641	4268.205128	3957.435897	1726.000000	1677.000000	99.026000	0.000000	0.000000	0.000000	0.000000	1	1	0	0	0	0	0	0	0	0	0	0	0	0	0	0
11.000000	4356.923077	4387.179487	4406.666667	3714.358974	4381.025641	4611.282051	4630.769231	4523.589744	4024.615385	4101.025641	4516.410256	4442.564103	4266.153846	3955.897436	1725.000000	1677.000000	99.026000	0.000000	0.000000	0.000000	0.000000	1	1	0	0	0	0	0	0	0	0	0	0	0	0	0	0
12.000000	4355.384615	4387.179487	4406.666667	3715.384615	4380.000000	4610.256410	4630.256410	4523.589744	4023.589744	4100.000000	4517.948718	4437.948718	4267.179487	3954.358974	1727.000000	1676.000000	99.041000	0.000000	0.000000	0.000000	0.000000	1	1	0	0	0	0	0	0	0	0	0	0	0	0	0	0
13.000000	4357.435897	4387.692308	4407.692308	3715.897436	4380.000000	4608.717949	4630.769231	4523.589744	4027.179487	4101.025641	4517.435897	4435.897436	4269.230769	3955.897436	1725.000000	1677.000000	99.041000	0.000000	0.000000	0.000000	0.000000	1	1	0	0	0	0	0	0	0	0	0	0	0	0	0	0
14.000000	4357.435897	4385.641026	4407.179487	3715.384615	4380.000000	4608.205128	4631.794872	4525.641026	4028.717949	4102.051282	4515.384615	4438.974359	4266.666667	3956.410256	1727.000000	1677.000000	99.057000	0.000000	0.000000	0.000000	0.000000	1	1	0	0	0	0	0	0	0	0	0	0	0	0	0	0
15.000000	4354.871795	4386.666667	4403.589744	3714.871795	4377.948718	4609.230769	4631.282051	4527.692308	4027.179487	4100.000000	4515.384615	4441.025641	4266.153846	3957.435897	1725.000000	1677.000000	99.057000	0.000000	0.000000	0.000000	0.000000	1	1	0	0	0	0	0	0	0	0	0	0	0	0	0	0
16.000000	4357.435897	4390.256410	4405.128205	3713.846154	4378.461538	4610.769231	4627.179487	4526.153846	4024.615385	4101.538462	4519.487179	4441.538462	4268.717949	3957.948718	1725.000000	1677.000000	99.072000	0.000000	0.000000	0.000000	0.000000	1	1	0	0	0	0	0	0	0	0	0	0	0	0	0	0
17.000000	4358.974359	4387.179487	4408.717949	3714.358974	4383.076923	4609.230769	4624.102564	4523.589744	4023.589744	4102.564103	4522.564103	4441.538462	4268.717949	3956.923077	1725.000000	1676.000000	99.072000	0.000000	0.000000	0.000000	0.000000	1	1	0	0	0	0	0	0	0	0	0	0	0	0	0	0
18.000000	4355.384615	4385.641026	4408.205128	3714.358974	4382.564103	4608.717949	4628.205128	4526.666667	4023.076923	4101.538462	4516.410256	4440.512821	4267.692308	3957.435897	1725.000000	1678.000000	99.093000	0.000000	0.000000	0.000000	0.000000	1	1	0	0	0	0	0	0	0	0	0	0	0	0	0	0
19.000000	4354.871795	4387.179487	4406.153846	3713.333333	4378.974359	4610.769231	4629.743590	4526.666667	4025.128205	4100.000000	4511.282051	4441.538462	4268.717949	3960.000000	1726.000000	1677.000000	99.093000	0.000000	0.000000	0.000000	0.000000	1	1	0	0	0	0	0	0	0	0	0	0	0	0	0	0
20.000000	4356.410256	4385.641026	4408.717949	3713.846154	4379.487179	4612.307692	4626.153846	4522.564103	4026.666667	4101.025641	4512.820513	4443.589744	4269.230769	3959.487179	1726.000000	1677.000000	99.093000	0.000000	0.000000	0.000000	0.000000	1	1	0	0	0	0	0	0	0	0	0	0	0	0	0	0
21.000000	4355.384615	4386.666667	4408.205128	3714.358974	4382.564103	4610.256410	4626.666667	4522.051282	4026.666667	4102.051282	4518.974359	4440.512821	4267.692308	3958.974359	1726.000000	1677.000000	99.108000	0.000000	0.000000	0.000000	0.000000	1	1	0	0	0	0	0	0	0	0	0	0	0	0	0	0
22.000000	4355.384615	4389.230769	4406.666667	3713.846154	4382.564103	4608.205128	4628.717949	4524.615385	4027.179487	4101.538462	4517.948718	4438.461538	4266.666667	3957.435897	1726.000000	1677.000000	99.108000	0.000000	0.000000	0.000000	0.000000	1	1	0	0	0	0	0	0	0	0	0	0	0	0	0	0
23.000000	4359.487179	4387.179487	4406.153846	3715.384615	4377.948718	4610.256410	4627.179487	4523.076923	4028.205128	4101.538462	4517.435897	4442.564103	4268.205128	3957.948718	1726.000000	1677.000000	99.124000	0.000000	0.000000	0.000000	0.000000	1	1	0	0	0	0	0	0	0	0	0	0	0	0	0	0
24.000000	4357.435897	4385.641026	4406.666667	3717.948718	4376.923077	4610.256410	4629.230769	4522.051282	4026.153846	4101.025641	4515.897436	4445.641026	4269.743590	3958.974359	1726.000000	1677.000000	99.139000	0.000000	0.000000	0.000000	0.000000	1	1	0	0	0	0	0	0	0	0	0	0	0	0	0	0
25.000000	4354.871795	4388.717949	4407.179487	3713.846154	4379.487179	4609.743590	4631.282051	4525.128205	4023.589744	4101.025641	4516.923077	4442.564103	4269.230769	3957.435897	1725.000000	1677.000000	99.139000	0.000000	0.000000	0.000000	0.000000	1	1	0	0	0	0	0	0	0	0	0	0	0	0	0	0
26.000000	4357.948718	4390.256410	4407.179487	3709.743590	4379.487179	4611.282051	4628.717949	4526.666667	4027.692308	4104.102564	4518.974359	4440.000000	4268.205128	3954.871795	1725.000000	1678.000000	99.139000	0.000000	0.000000	0.000000	0.000000	1	1	0	0	0	0	0	0	0	0	0	0	0	0	0	0
27.000000	4358.461538	4388.717949	4407.179487	3713.333333	4381.025641	4611.282051	4628.717949	4526.153846	4030.256410	4104.615385	4520.000000	4440.512821	4269.743590	3958.461538	1725.000000	1677.000000	99.155000	0.000000	0.000000	0.000000	0.000000	1	1	0	0	0	0	0	0	0	0	0	0	0	0	0	0
28.000000	4356.410256	4385.641026	4407.692308	3716.410256	4383.076923	4610.256410	4630.769231	4523.076923	4026.666667	4102.564103	4518.461538	4440.512821	4269.230769	3960.512821	1725.000000	1677.000000	99.171000	0.000000	0.000000	0.000000	0.000000	1	1	0	0	0	0	0	0	0	0	0	0	0	0	0	0
29.000000	4355.897436	4386.666667	4407.179487	3713.333333	4380.000000	4608.717949	4628.205128	4523.589744	4024.615385	4101.538462	4516.410256	4440.000000	4268.717949	3955.897436	1725.000000	1676.000000	99.171000	0.000000	0.000000	0.000000	0.000000	1	1	0	0	0	0	0	0	0	0	0	0	0	0	0	0
30.000000	4355.384615	4388.205128	4406.153846	3713.846154	4378.974359	4608.717949	4624.615385	4524.102564	4026.153846	4100.512821	4516.923077	4440.512821	4270.769231	3955.897436	1725.000000	1678.000000	99.186000	0.000000	0.000000	0.000000	0.000000	1	1	0	0	0	0	0	0	0	0	0	0	0	0	0	0
31.000000	4355.897436	4385.128205	4405.128205	3713.846154	4382.051282	4610.769231	4625.641026	4522.051282	4027.179487	4098.974359	4518.461538	4440.000000	4271.282051	3960.512821	1727.000000	1676.000000	99.186000	0.000000	0.000000	0.000000	0.000000	1	1	0	0	0	0	0	0	0	0	0	0	0	0	0	0
32.000000	4358.461538	4384.615385	4404.615385	3710.769231	4378.974359	4610.769231	4627.179487	4523.589744	4026.153846	4101.025641	4518.461538	4439.487179	4269.230769	3961.538462	1725.000000	1677.000000	99.186000	0.000000	0.000000	0.000000	0.000000	1	1	0	0	0	0	0	0	0	0	0	0	0	0	0	0
33.000000	4359.487179	4388.205128	4406.666667	3710.769231	4377.435897	4607.692308	4628.205128	4526.666667	4025.641026	4101.025641	4519.487179	4441.538462	4269.743590	3957.435897	1726.000000	1677.000000	99.206000	0.000000	0.000000	0.000000	0.000000	1	1	0	0	0	0	0	0	0	0	0	0	0	0	0	0
34.000000	4357.948718	4388.717949	4405.641026	3711.282051	4382.564103	4608.717949	4628.205128	4526.153846	4025.641026	4101.025641	4519.487179	4441.538462	4269.743590	3956.410256	1726.000000	1676.000000	99.206000	0.000000	0.000000	0.000000	0.000000	1	1	0	0	0	0	0	0	0	0	0	0	0	0	0	0
35.000000	4356.923077	4388.717949	4404.615385	3711.794872	4382.564103	4611.794872	4626.153846	4524.102564	4027.179487	4105.641026	4515.384615	4438.461538	4267.692308	3956.923077	1725.000000	1678.000000	99.222000	0.000000	0.000000	0.000000	0.000000	1	1	0	0	0	0	0	0	0	0	0	0	0	0	0	0
36.000000	4358.461538	4387.179487	4406.666667	3712.307692	4377.435897	4609.743590	4624.615385	4525.128205	4027.692308	4104.615385	4519.487179	4438.461538	4268.205128	3959.487179	1725.000000	1676.000000	99.222000	0.000000	0.000000	0.000000	0.000000	1	1	0	0	0	0	0	0	0	0	0	0	0	0	0	0
37.000000	4358.974359	4384.102564	4407.692308	3713.846154	4378.461538	4609.743590	4627.692308	4527.692308	4025.128205	4100.000000	4523.589744	4444.102564	4268.717949	3960.000000	1725.000000	1677.000000	99.238000	0.000000	0.000000	0.000000	0.000000	1	1	0	0	0	0	0	0	0	0	0	0	0	0	0	0
38.000000	4357.948718	4385.128205	4405.128205	3714.871795	4378.974359	4610.769231	4629.230769	4525.641026	4024.102564	4100.512821	4522.051282	4446.666667	4268.205128	3960.000000	1726.000000	1677.000000	99.238000	0.000000	0.000000	0.000000	0.000000	1	1	0	0	0	0	0	0	0	0	0	0	0	0	0	0
39.000000	4357.948718	4386.666667	4407.179487	3715.384615	4377.948718	4610.256410	4626.153846	4522.051282	4025.641026	4102.051282	4517.435897	4443.589744	4268.205128	3959.487179	1726.000000	1677.000000	99.253000	0.000000	0.000000	0.000000	0.000000	1	1	0	0	0	0	0	0	0	0	0	0	0	0	0	0
40.000000	4359.487179	4387.179487	4410.769231	3714.358974	4378.461538	4610.769231	4625.641026	4523.589744	4026.666667	4101.538462	4518.974359	4438.974359	4269.743590	3959.487179	1727.000000	1676.000000	99.253000	0.000000	0.000000	0.000000	0.000000	1	1	0	0	0	0	0	0	0	0	0	0	0	0	0	0
41.000000	4358.461538	4387.692308	4408.205128	3713.846154	4378.974359	4611.282051	4627.179487	4525.128205	4025.641026	4101.025641	4517.948718	4438.461538	4269.230769	3957.435897	1725.000000	1678.000000	99.269000	0.000000	0.000000	0.000000	0.000000	1	1	0	0	0	0	0	0	0	0	0	0	0	0	0	0
42.000000	4358.461538	4386.153846	4404.102564	3714.871795	4380.000000	4610.256410	4625.128205	4522.564103	4027.179487	4101.025641	4519.487179	4438.974359	4269.230769	3957.435897	1726.000000	1677.000000	99.269000	0.000000	0.000000	0.000000	0.000000	1	1	0	0	0	0	0	0	0	0	0	0	0	0	0	0
43.000000	4358.461538	4384.615385	4406.153846	3714.358974	4381.538462	4610.769231	4628.205128	4524.102564	4026.153846	4099.487179	4520.000000	4439.487179	4269.230769	3960.512821	1725.000000	1677.000000	99.284000	0.000000	0.000000	0.000000	0.000000	1	1	0	0	0	0	0	0	0	0	0	0	0	0	0	0
44.000000	4356.923077	4388.205128	4406.666667	3713.333333	4381.025641	4611.282051	4631.794872	4526.153846	4024.615385	4100.512821	4517.435897	4441.025641	4269.230769	3961.538462	1726.000000	1677.000000	99.284000	0.000000	0.000000	0.000000	0.000000	1	1	0	0	0	0	0	0	0	0	0	0	0	0	0	0
45.000000	4355.897436	4388.717949	4404.102564	3714.871795	4382.051282	4608.717949	4627.692308	4524.615385	4025.641026	4100.000000	4517.948718	4442.564103	4269.230769	3958.461538	1725.000000	1677.000000	99.300000	0.000000	0.000000	0.000000	0.000000	1	1	0	0	0	0	0	0	0	0	0	0	0	0	0	0
46.000000	4356.923077	4386.666667	4407.179487	3714.358974	4382.564103	4609.230769	4626.153846	4527.179487	4026.153846	4101.025641	4517.948718	4440.512821	4269.230769	3957.948718	1725.000000	1678.000000	99.300000	0.000000	0.000000	0.000000	0.000000	1	1	0	0	0	0	0	0	0	0	0	0	0	0	0	0
47.000000	4358.461538	4386.666667	4408.717949	3711.794872	4378.974359	4610.769231	4630.256410	4527.179487	4026.666667	4103.076923	4516.410256	4437.948718	4268.717949	3958.461538	1726.000000	1676.000000	99.316000	0.000000	0.000000	0.000000	0.000000	1	1	0	0	0	0	0	0	0	0	0	0	0	0	0	0
48.000000	4356.923077	4386.666667	4407.179487	3711.794872	4378.461538	4609.743590	4628.717949	4521.538462	4028.717949	4100.000000	4516.410256	4441.025641	4269.230769	3956.410256	1725.000000	1678.000000	99.320000	0.000000	0.000000	0.000000	0.000000	1	1	0	0	0	0	0	0	0	0	0	0	0	0	0	0
49.000000	4355.384615	4386.153846	4408.205128	3713.333333	4380.000000	4609.743590	4626.666667	4524.615385	4027.179487	4097.948718	4518.461538	4443.076923	4269.743590	3956.923077	1725.000000	1676.000000	99.320000	0.000000	0.000000	0.000000	0.000000	1	1	0	0	0	0	0	0	0	0	0	0	0	0	0	0
50.000000	4356.923077	4385.641026	4409.230769	3712.820513	4380.000000	4611.282051	4628.717949	4528.717949	4024.615385	4100.000000	4515.384615	4438.974359	4268.205128	3957.948718	1726.000000	1677.000000	99.336000	0.000000	0.000000	0.000000	0.000000	1	1	0	0	0	0	0	0	0	0	0	0	0	0	0	0
51.000000	4357.948718	4385.641026	4406.666667	3710.256410	4382.564103	4610.769231	4627.179487	4525.128205	4026.153846	4098.974359	4515.897436	4437.948718	4267.179487	3958.461538	1726.000000	1677.000000	99.336000	0.000000	0.000000	0.000000	0.000000	1	1	0	0	0	0	0	0	0	0	0	0	0	0	0	0
52.000000	4355.384615	4386.666667	4406.666667	3710.769231	4382.051282	4610.256410	4626.153846	4523.589744	4026.666667	4098.461538	4518.461538	4441.538462	4267.692308	3956.923077	1726.000000	1677.000000	99.351000	0.000000	0.000000	0.000000	0.000000	1	1	0	0	0	0	0	0	0	0	0	0	0	0	0	0
53.000000	4355.384615	4387.179487	4405.641026	3715.384615	4380.512821	4609.743590	4628.717949	4525.641026	4026.153846	4101.538462	4519.487179	4441.538462	4268.717949	3956.923077	1727.000000	1676.000000	99.351000	0.000000	0.000000	0.000000	0.000000	1	1	0	0	0	0	0	0	0	0	0	0	0	0	0	0
54.000000	4357.435897	4387.179487	4405.641026	3716.923077	4381.025641	4609.230769	4630.769231	4526.153846	4026.153846	4101.538462	4517.435897	4437.435897	4268.205128	3955.384615	1726.000000	1677.000000	99.367000	0.000000	0.000000	0.000000	0.000000	1	1	0	0	0	0	0	0	0	0	0	0	0	0	0	0
55.000000	4356.923077	4387.692308	4407.692308	3711.282051	4377.948718	4611.282051	4630.769231	4524.615385	4027.179487	4100.512821	4517.948718	4436.923077	4267.692308	3956.923077	1726.000000	1678.000000	99.367000	0.000000	0.000000	0.000000	0.000000	1	1	0	0	0	0	0	0	0	0	0	0	0	0	0	0
56.000000	4355.897436	4386.153846	4407.692308	3710.256410	4377.948718	4612.307692	4630.769231	4525.128205	4029.743590	4101.025641	4515.384615	4438.461538	4268.717949	3958.974359	1725.000000	1676.000000	99.383000	0.000000	0.000000	0.000000	0.000000	1	1	0	0	0	0	0	0	0	0	0	0	0	0	0	0
57.000000	4357.435897	4384.615385	4405.641026	3715.384615	4381.538462	4610.769231	4629.230769	4524.615385	4029.743590	4101.025641	4516.923077	4438.974359	4268.717949	3958.461538	1725.000000	1677.000000	99.383000	0.000000	0.000000	0.000000	0.000000	1	1	0	0	0	0	0	0	0	0	0	0	0	0	0	0
58.000000	4357.435897	4387.179487	4407.179487	3714.358974	4380.000000	4609.743590	4628.205128	4524.102564	4026.666667	4100.000000	4518.461538	4441.538462	4268.717949	3957.948718	1726.000000	1677.000000	99.398000	0.000000	0.000000	0.000000	0.000000	1	1	0	0	0	0	0	0	0	0	0	0	0	0	0	0
59.000000	4356.410256	4388.717949	4408.717949	3713.333333	4378.974359	4611.794872	4628.205128	4523.589744	4026.153846	4100.000000	4514.871795	4443.589744	4268.717949	3958.461538	1725.000000	1677.000000	99.398000	0.000000	0.000000	0.000000	0.000000	1	1	0	0	0	0	0	0	0	0	0	0	0	0	0	0
60.000000	4357.435897	4386.153846	4408.717949	3715.897436	4383.076923	4612.820513	4628.205128	4524.615385	4027.692308	4098.974359	4514.358974	4441.025641	4268.205128	3957.435897	1726.000000	1677.000000	99.414000	0.000000	0.000000	0.000000	0.000000	1	1	0	0	0	0	0	0	0	0	0	0	0	0	0	0
61.000000	4358.461538	4385.641026	4407.692308	3716.923077	4381.538462	4610.769231	4629.743590	4524.615385	4027.692308	4098.461538	4517.948718	4438.461538	4267.179487	3956.923077	1725.000000	1677.000000	99.414000	0.000000	0.000000	0.000000	0.000000	1	1	0	0	0	0	0	0	0	0	0	0	0	0	0	0
62.000000	4357.948718	4388.205128	4406.153846	3714.871795	4377.435897	4608.717949	4628.205128	4525.641026	4026.666667	4102.564103	4515.384615	4440.000000	4268.205128	3955.384615	1726.000000	1677.000000	99.434000	0.000000	0.000000	0.000000	0.000000	1	1	0	0	0	0	0	0	0	0	0	0	0	0	0	0
63.000000	4357.435897	4389.743590	4406.666667	3714.871795	4380.512821	4610.769231	4628.717949	4528.205128	4027.179487	4105.128205	4512.307692	4441.025641	4268.717949	3953.846154	1726.000000	1677.000000	99.434000	0.000000	0.000000	0.000000	0.000000	1	1	0	0	0	0	0	0	0	0	0	0	0	0	0	0
64.000000	4356.923077	4387.692308	4407.179487	3714.358974	4383.589744	4613.333333	4632.820513	4526.666667	4026.666667	4100.512821	4515.897436	4437.435897	4267.692308	3954.871795	1727.000000	1678.000000	99.449000	0.000000	0.000000	0.000000	0.000000	1	1	0	0	0	0	0	0	0	0	0	0	0	0	0	0
65.000000	4357.948718	4386.153846	4406.666667	3712.820513	4381.538462	4611.794872	4632.307692	4525.641026	4025.128205	4098.974359	4515.384615	4435.897436	4268.205128	3956.410256	1725.000000	1677.000000	99.449000	0.000000	0.000000	0.000000	0.000000	1	1	0	0	0	0	0	0	0	0	0	0	0	0	0	0
66.000000	4358.974359	4387.692308	4406.153846	3715.384615	4380.512821	4608.717949	4630.256410	4525.128205	4024.615385	4102.564103	4512.820513	4436.923077	4268.717949	3953.846154	1726.000000	1677.000000	99.465000	0.000000	0.000000	0.000000	0.000000	1	1	0	0	0	0	0	0	0	0	0	0	0	0	0	0
67.000000	4356.923077	4387.179487	4407.179487	3714.871795	4381.538462	4609.230769	4631.794872	4521.538462	4025.641026	4102.051282	4510.769231	4437.948718	4268.717949	3952.307692	1726.000000	1676.000000	99.465000	0.000000	0.000000	0.000000	0.000000	1	1	0	0	0	0	0	0	0	0	0	0	0	0	0	0
68.000000	4356.923077	4385.641026	4406.666667	3710.769231	4381.538462	4611.282051	4632.307692	4521.538462	4026.153846	4099.487179	4513.846154	4438.461538	4268.205128	3955.897436	1725.000000	1678.000000	99.481000	0.000000	0.000000	0.000000	0.000000	1	1	0	0	0	0	0	0	0	0	0	0	0	0	0	0
69.000000	4356.410256	4386.153846	4406.666667	3711.794872	4381.538462	4611.282051	4630.256410	4524.102564	4027.179487	4100.000000	4515.384615	4438.461538	4266.153846	3955.897436	1727.000000	1676.000000	99.481000	0.000000	0.000000	0.000000	0.000000	1	1	0	0	0	0	0	0	0	0	0	0	0	0	0	0
70.000000	4354.871795	4387.692308	4406.666667	3717.435897	4382.564103	4609.230769	4628.717949	4523.076923	4028.205128	4099.487179	4513.846154	4438.461538	4266.153846	3953.846154	1725.000000	1677.000000	99.496000	0.000000	0.000000	0.000000	0.000000	1	1	0	0	0	0	0	0	0	0	0	0	0	0	0	0
71.000000	4355.897436	4388.717949	4408.205128	3716.923077	4381.538462	4609.230769	4629.743590	4522.564103	4024.615385	4098.974359	4509.230769	4441.025641	4268.205128	3952.307692	1726.000000	1677.000000	99.496000	0.000000	0.000000	0.000000	0.000000	1	1	0	0	0	0	0	0	0	0	0	0	0	0	0	0
72.000000	4356.410256	4389.230769	4406.666667	3713.333333	4381.025641	4610.769231	4632.307692	4526.153846	4024.102564	4101.025641	4512.820513	4443.076923	4268.717949	3955.384615	1726.000000	1677.000000	99.512000	0.000000	0.000000	0.000000	0.000000	1	1	0	0	0	0	0	0	0	0	0	0	0	0	0	0
73.000000	4355.897436	4389.743590	4406.153846	3714.871795	4383.076923	4610.769231	4632.307692	4527.692308	4030.256410	4105.128205	4512.307692	4440.000000	4267.692308	3954.871795	1726.000000	1677.000000	99.512000	0.000000	0.000000	0.000000	0.000000	1	1	0	0	0	0	0	0	0	0	0	0	0	0	0	0
74.000000	4355.897436	4389.230769	4406.666667	3715.897436	4380.512821	4608.717949	4631.794872	4526.666667	4031.282051	4106.153846	4509.230769	4437.948718	4269.743590	3952.307692	1726.000000	1677.000000	99.528000	0.000000	0.000000	0.000000	0.000000	1	1	0	0	0	0	0	0	0	0	0	0	0	0	0	0
75.000000	4356.923077	4388.205128	4406.153846	3712.820513	4375.897436	4610.769231	4631.794872	4527.179487	4029.743590	4101.025641	4509.743590	4438.461538	4269.743590	3953.846154	1726.000000	1677.000000	99.528000	0.000000	0.000000	0.000000	0.000000	1	1	0	0	0	0	0	0	0	0	0	0	0	0	0	0
76.000000	4357.948718	4388.205128	4406.666667	3713.333333	4379.487179	4611.282051	4630.256410	4527.179487	4031.794872	4098.974359	4511.282051	4436.923077	4267.692308	3956.410256	1725.000000	1676.000000	99.543000	0.000000	0.000000	0.000000	0.000000	1	1	0	0	0	0	0	0	0	0	0	0	0	0	0	0
77.000000	4356.410256	4388.717949	4408.205128	3715.897436	4383.589744	4608.717949	4630.256410	4529.230769	4028.717949	4104.102564	4509.743590	4436.410256	4268.717949	3954.358974	1726.000000	1677.000000	99.548000	0.000000	0.000000	0.000000	0.000000	1	1	0	0	0	0	0	0	0	0	0	0	0	0	0	0
78.000000	4354.871795	4388.205128	4408.205128	3715.384615	4381.538462	4609.743590	4634.871795	4528.205128	4024.615385	4105.128205	4509.230769	4437.435897	4269.230769	3950.769231	1726.000000	1678.000000	99.548000	0.000000	0.000000	0.000000	0.000000	1	1	0	0	0	0	0	0	0	0	0	0	0	0	0	0
79.000000	4355.897436	4389.743590	4407.179487	3713.333333	4381.025641	4612.820513	4634.358974	4526.666667	4026.666667	4101.538462	4510.256410	4436.923077	4269.743590	3951.282051	1726.000000	1677.000000	99.563000	0.000000	0.000000	0.000000	0.000000	1	1	0	0	0	0	0	0	0	0	0	0	0	0	0	0
80.000000	4357.435897	4389.743590	4406.666667	3713.333333	4383.076923	4611.794872	4629.743590	4527.179487	4029.230769	4097.435897	4509.743590	4437.948718	4270.769231	3953.333333	1726.000000	1677.000000	99.563000	0.000000	0.000000	0.000000	0.000000	1	1	0	0	0	0	0	0	0	0	0	0	0	0	0	0
81.000000	4357.948718	4388.205128	4405.128205	3714.358974	4382.051282	4610.769231	4630.256410	4526.153846	4028.205128	4096.923077	4510.256410	4438.974359	4269.230769	3953.846154	1726.000000	1677.000000	99.579000	0.000000	0.000000	0.000000	0.000000	1	1	0	0	0	0	0	0	0	0	0	0	0	0	0	0
82.000000	4358.974359	4388.717949	4407.179487	3716.410256	4381.025641	4612.820513	4631.794872	4522.051282	4026.153846	4100.512821	4510.256410	4437.948718	4267.179487	3951.794872	1725.000000	1677.000000	99.579000	0.000000	0.000000	0.000000	0.000000	1	1	0	0	0	0	0	0	0	0	0	0	0	0	0	0
83.000000	4357.948718	4388.205128	4409.743590	3716.410256	4382.051282	4612.307692	4630.769231	4523.589744	4026.666667	4102.564103	4511.282051	4437.948718	4268.205128	3951.282051	1727.000000	1677.000000	99.595000	0.000000	0.000000	0.000000	0.000000	1	1	0	0	0	0	0	0	0	0	0	0	0	0	0	0
84.000000	4356.410256	4385.128205	4408.717949	3714.358974	4382.051282	4610.769231	4631.794872	4527.692308	4026.666667	4101.025641	4508.205128	4437.948718	4268.717949	3952.820513	1725.000000	1677.000000	99.595000	0.000000	0.000000	0.000000	0.000000	1	1	0	0	0	0	0	0	0	0	0	0	0	0	0	0
85.000000	4358.461538	4386.666667	4406.153846	3713.333333	4382.564103	4610.256410	4631.282051	4525.641026	4027.179487	4100.512821	4507.179487	4436.410256	4267.179487	3953.333333	1726.000000	1677.000000	99.610000	0.000000	0.000000	0.000000	0.000000	1	1	0	0	0	0	0	0	0	0	0	0	0	0	0	0
86.000000	4356.410256	4389.230769	4408.205128	3714.358974	4382.564103	4610.769231	4630.769231	4525.128205	4029.230769	4101.025641	4508.717949	4436.410256	4266.666667	3950.256410	1726.000000	1676.000000	99.610000	0.000000	0.000000	0.000000	0.000000	1	1	0	0	0	0	0	0	0	0	0	0	0	0	0	0
87.000000	4354.358974	4388.717949	4409.230769	3713.333333	4381.538462	4611.794872	4633.846154	4526.666667	4029.743590	4102.051282	4511.282051	4436.923077	4266.666667	3951.794872	1725.000000	1677.000000	99.626000	0.000000	0.000000	0.000000	0.000000	1	1	0	0	0	0	0	0	0	0	0	0	0	0	0	0
88.000000	4356.410256	4388.205128	4409.230769	3713.846154	4381.025641	4610.256410	4635.897436	4527.179487	4028.717949	4104.615385	4506.666667	4435.897436	4266.153846	3952.307692	1727.000000	1676.000000	99.626000	0.000000	0.000000	0.000000	0.000000	1	1	0	0	0	0	0	0	0	0	0	0	0	0	0	0
89.000000	4356.410256	4388.205128	4409.230769	3716.923077	4382.051282	4609.230769	4634.358974	4527.692308	4029.230769	4104.102564	4504.615385	4436.410256	4267.179487	3950.769231	1725.000000	1677.000000	99.642000	0.000000	0.000000	0.000000	0.000000	1	1	0	0	0	0	0	0	0	0	0	0	0	0	0	0
90.000000	4354.358974	4386.666667	4408.205128	3715.897436	4382.051282	4610.769231	4634.358974	4529.743590	4028.717949	4099.487179	4505.128205	4438.974359	4268.717949	3950.769231	1727.000000	1677.000000	99.642000	0.000000	0.000000	0.000000	0.000000	1	1	0	0	0	0	0	0	0	0	0	0	0	0	0	0
91.000000	4353.846154	4386.153846	4406.153846	3713.846154	4381.538462	4611.282051	4635.384615	4527.179487	4028.717949	4101.025641	4507.179487	4437.435897	4268.717949	3950.769231	1725.000000	1677.000000	99.662000	0.000000	0.000000	0.000000	0.000000	1	1	0	0	0	0	0	0	0	0	0	0	0	0	0	0
92.000000	4355.384615	4388.205128	4407.179487	3713.333333	4382.051282	4611.282051	4633.846154	4526.666667	4027.692308	4102.051282	4508.205128	4435.897436	4268.717949	3948.717949	1725.000000	1678.000000	99.662000	0.000000	0.000000	0.000000	0.000000	1	1	0	0	0	0	0	0	0	0	0	0	0	0	0	0
93.000000	4358.974359	4389.743590	4407.179487	3715.384615	4381.025641	4612.307692	4633.846154	4528.205128	4026.153846	4097.948718	4508.717949	4437.435897	4269.230769	3949.230769	1725.000000	1677.000000	99.677000	0.000000	0.000000	0.000000	0.000000	1	1	0	0	0	0	0	0	0	0	0	0	0	0	0	0
94.000000	4357.948718	4388.717949	4404.615385	3715.897436	4380.512821	4611.282051	4636.410256	4528.205128	4027.179487	4097.435897	4509.743590	4436.923077	4270.256410	3949.743590	1726.000000	1677.000000	99.677000	0.000000	0.000000	0.000000	0.000000	1	1	0	0	0	0	0	0	0	0	0	0	0	0	0	0
95.000000	4354.358974	4387.692308	4405.128205	3713.846154	4380.512821	4609.743590	4637.435897	4527.179487	4029.230769	4100.512821	4507.692308	4435.384615	4267.692308	3948.717949	1726.000000	1676.000000	99.693000	0.000000	0.000000	0.000000	0.000000	1	1	0	0	0	0	0	0	0	0	0	0	0	0	0	0
96.000000	4355.384615	4388.717949	4407.179487	3713.333333	4381.538462	4611.282051	4634.358974	4528.205128	4027.179487	4101.538462	4505.641026	4436.923077	4265.128205	3949.743590	1726.000000	1678.000000	99.693000	0.000000	0.000000	0.000000	0.000000	1	1	0	0	0	0	0	0	0	0	0	0	0	0	0	0
97.000000	4357.435897	4389.230769	4408.717949	3714.871795	4382.051282	4613.333333	4633.846154	4529.743590	4025.128205	4100.512821	4506.666667	4437.435897	4266.153846	3953.333333	1726.000000	1676.000000	99.708000	0.000000	0.000000	0.000000	0.000000	1	1	0	0	0	0	0	0	0	0	0	0	0	0	0	0
98.000000	4356.923077	4389.230769	4409.230769	3714.871795	4382.051282	4612.307692	4635.897436	4527.179487	4026.153846	4101.025641	4508.205128	4434.871795	4268.205128	3954.871795	1725.000000	1678.000000	99.708000	0.000000	0.000000	0.000000	0.000000	1	1	0	0	0	0	0	0	0	0	0	0	0	0	0	0
99.000000	4355.384615	4390.769231	4409.743590	3713.846154	4381.538462	4610.769231	4633.846154	4523.589744	4028.205128	4100.000000	4506.153846	4435.897436	4269.230769	3952.307692	1726.000000	1676.000000	99.724000	0.000000	0.000000	0.000000	0.000000	1	1	0	0	0	0	0	0	0	0	0	0	0	0	0	0
100.000000	4353.333333	4390.256410	4408.717949	3713.333333	4381.538462	4612.307692	4631.282051	4523.589744	4028.205128	4098.461538	4507.179487	4436.410256	4269.230769	3950.769231	1725.000000	1677.000000	99.724000	0.000000	0.000000	0.000000	0.000000	1	1	0	0	0	0	0	0	0	0	0	0	0	0	0	0
101.000000	4354.358974	4388.717949	4410.256410	3713.333333	4382.051282	4612.820513	4634.871795	4527.692308	4025.641026	4097.435897	4508.205128	4435.384615	4267.692308	3950.256410	1726.000000	1677.000000	99.740000	0.000000	0.000000	0.000000	0.000000	1	1	0	0	0	0	0	0	0	0	0	0	0	0	0	0
102.000000	4357.948718	4389.230769	4408.717949	3714.358974	4382.051282	4609.743590	4635.897436	4529.743590	4027.179487	4101.025641	4508.717949	4436.410256	4265.641026	3951.794872	1725.000000	1677.000000	99.740000	0.000000	0.000000	0.000000	0.000000	1	1	0	0	0	0	0	0	0	0	0	0	0	0	0	0
103.000000	4355.384615	4390.256410	4408.205128	3714.871795	4381.538462	4608.205128	4632.820513	4527.692308	4027.179487	4104.615385	4508.205128	4437.435897	4265.641026	3949.743590	1726.000000	1677.000000	99.755000	0.000000	0.000000	0.000000	0.000000	1	1	0	0	0	0	0	0	0	0	0	0	0	0	0	0
104.000000	4354.871795	4389.743590	4408.717949	3713.846154	4380.512821	4611.794872	4631.282051	4525.128205	4025.128205	4103.589744	4508.717949	4435.897436	4267.692308	3948.205128	1726.000000	1676.000000	99.755000	0.000000	0.000000	0.000000	0.000000	1	1	0	0	0	0	0	0	0	0	0	0	0	0	0	0
105.000000	4357.435897	4385.128205	4408.717949	3714.871795	4381.025641	4612.307692	4631.282051	4525.641026	4030.256410	4103.076923	4508.717949	4435.897436	4266.666667	3951.282051	1726.000000	1677.000000	99.771000	0.000000	0.000000	0.000000	0.000000	1	1	0	0	0	0	0	0	0	0	0	0	0	0	0	0
106.000000	4357.435897	4383.076923	4406.153846	3714.871795	4381.538462	4609.743590	4631.282051	4528.205128	4033.333333	4104.102564	4509.743590	4435.897436	4266.666667	3955.897436	1726.000000	1677.000000	99.775000	0.000000	0.000000	0.000000	0.000000	1	1	0	0	0	0	0	0	0	0	0	0	0	0	0	0
107.000000	4356.410256	4387.179487	4406.153846	3714.871795	4382.051282	4610.256410	4633.846154	4527.179487	4026.666667	4102.051282	4508.205128	4436.923077	4270.256410	3953.846154	1726.000000	1678.000000	99.775000	0.000000	0.000000	0.000000	0.000000	1	1	0	0	0	0	0	0	0	0	0	0	0	0	0	0
108.000000	4357.948718	4390.769231	4406.153846	3713.846154	4381.538462	4610.256410	4634.358974	4526.153846	4024.615385	4100.512821	4510.769231	4437.948718	4271.282051	3952.307692	1726.000000	1676.000000	99.791000	0.000000	0.000000	0.000000	0.000000	1	1	0	0	0	0	0	0	0	0	0	0	0	0	0	0
109.000000	4357.948718	4388.717949	4406.666667	3712.307692	4380.000000	4610.256410	4632.307692	4528.717949	4027.179487	4101.538462	4512.820513	4436.923077	4267.692308	3955.897436	1725.000000	1677.000000	99.791000	0.000000	0.000000	0.000000	0.000000	1	1	0	0	0	0	0	0	0	0	0	0	0	0	0	0
110.000000	4356.923077	4388.205128	4406.666667	3712.820513	4379.487179	4610.769231	4630.769231	4528.717949	4025.641026	4101.025641	4511.282051	4435.384615	4267.179487	3954.358974	1727.000000	1676.000000	99.807000	0.000000	0.000000	0.000000	0.000000	1	1	0	0	0	0	0	0	0	0	0	0	0	0	0	0
111.000000	4358.974359	4390.256410	4405.641026	3714.358974	4382.051282	4609.743590	4630.769231	4526.666667	4024.615385	4100.000000	4510.769231	4438.461538	4269.743590	3950.769231	1725.000000	1677.000000	99.807000	0.000000	0.000000	0.000000	0.000000	1	1	0	0	0	0	0	0	0	0	0	0	0	0	0	0
112.000000	4357.948718	4389.743590	4406.666667	3714.358974	4383.076923	4608.717949	4630.769231	4527.692308	4026.153846	4101.538462	4513.333333	4441.025641	4269.230769	3953.846154	1726.000000	1677.000000	99.822000	0.000000	0.000000	0.000000	0.000000	1	1	0	0	0	0	0	0	0	0	0	0	0	0	0	0
113.000000	4354.871795	4389.743590	4406.666667	3713.333333	4381.025641	4612.307692	4629.743590	4528.717949	4026.666667	4101.025641	4512.307692	4438.974359	4269.230769	3956.923077	1725.000000	1677.000000	99.822000	0.000000	0.000000	0.000000	0.000000	1	1	0	0	0	0	0	0	0	0	0	0	0	0	0	0
114.000000	4355.897436	4389.230769	4405.641026	3713.846154	4381.025641	4613.333333	4629.230769	4527.692308	4025.641026	4100.000000	4508.205128	4437.948718	4270.769231	3952.307692	1726.000000	1677.000000	99.838000	0.000000	0.000000	0.000000	0.000000	1	1	0	0	0	0	0	0	0	0	0	0	0	0	0	0
115.000000	4357.948718	4387.179487	4406.666667	3715.897436	4382.051282	4610.256410	4630.769231	4527.179487	4025.641026	4098.974359	4510.256410	4438.461538	4270.256410	3952.820513	1726.000000	1677.000000	99.838000	0.000000	0.000000	0.000000	0.000000	1	1	0	0	0	0	0	0	0	0	0	0	0	0	0	0
116.000000	4354.871795	4386.666667	4407.692308	3715.897436	4382.051282	4610.769231	4631.794872	4527.692308	4027.179487	4099.487179	4511.794872	4437.948718	4267.179487	3955.384615	1726.000000	1677.000000	99.853000	0.000000	0.000000	0.000000	0.000000	1	1	0	0	0	0	0	0	0	0	0	0	0	0	0	0
117.000000	4354.871795	4388.205128	4405.128205	3714.871795	4381.025641	4610.769231	4629.743590	4528.205128	4028.205128	4101.538462	4511.794872	4436.923077	4267.692308	3955.897436	1726.000000	1677.000000	99.853000	0.000000	0.000000	0.000000	0.000000	1	1	0	0	0	0	0	0	0	0	0	0	0	0	0	0
118.000000	4357.435897	4387.179487	4404.615385	3715.384615	4381.538462	4609.230769	4628.717949	4526.153846	4027.179487	4102.564103	4511.282051	4437.948718	4270.256410	3953.846154	1725.000000	1677.000000	99.869000	0.000000	0.000000	0.000000	0.000000	1	1	0	0	0	0	0	0	0	0	0	0	0	0	0	0
119.000000	4356.923077	4386.666667	4405.128205	3715.897436	4382.051282	4610.769231	4630.256410	4526.153846	4026.153846	4100.512821	4512.820513	4437.948718	4268.205128	3953.333333	1726.000000	1677.000000	99.869000	0.000000	0.000000	0.000000	0.000000	1	1	0	0	0	0	0	0	0	0	0	0	0	0	0	0
120.000000	4355.897436	4388.205128	4406.666667	3713.846154	4382.051282	4611.794872	4630.769231	4528.717949	4025.128205	4099.487179	4510.256410	4438.461538	4265.128205	3952.307692	1725.000000	1678.000000	99.890000	0.000000	0.000000	0.000000	0.000000	1	1	0	0	0	0	0	0	0	0	0	0	0	0	0	0
121.000000	4357.435897	4387.692308	4407.692308	3713.846154	4382.051282	4608.717949	4630.256410	4527.692308	4024.102564	4102.051282	4510.256410	4438.461538	4266.666667	3953.846154	1727.000000	1676.000000	99.890000	0.000000	0.000000	0.000000	0.000000	1	1	0	0	0	0	0	0	0	0	0	0	0	0	0	0
122.000000	4355.897436	4386.153846	4407.692308	3715.897436	4382.051282	4609.743590	4631.282051	4525.641026	4026.666667	4103.076923	4510.769231	4436.923077	4268.205128	3954.358974	1726.000000	1678.000000	99.906000	0.000000	0.000000	0.000000	0.000000	1	1	0	0	0	0	0	0	0	0	0	0	0	0	0	0
123.000000	4355.384615	4388.717949	4405.128205	3714.871795	4381.025641	4611.794872	4631.282051	4527.179487	4029.230769	4101.538462	4509.230769	4435.384615	4268.205128	3953.846154	1727.000000	1677.000000	99.906000	0.000000	0.000000	0.000000	0.000000	1	1	0	0	0	0	0	0	0	0	0	0	0	0	0	0
124.000000	4357.435897	4390.769231	4406.666667	3712.820513	4380.512821	4610.256410	4630.769231	4523.589744	4029.230769	4104.102564	4510.256410	4436.923077	4268.205128	3954.358974	1726.000000	1676.000000	99.921000	0.000000	0.000000	0.000000	0.000000	1	1	0	0	0	0	0	0	0	0	0	0	0	0	0	0
125.000000	4356.410256	4390.769231	4409.230769	3714.358974	4381.538462	4609.230769	4633.333333	4521.025641	4027.692308	4104.615385	4514.871795	4440.512821	4267.692308	3956.923077	1726.000000	1678.000000	99.921000	0.000000	0.000000	0.000000	0.000000	1	1	0	0	0	0	0	0	0	0	0	0	0	0	0	0
126.000000	4354.358974	4389.230769	4407.179487	3715.384615	4382.051282	4609.743590	4634.358974	4525.641026	4026.153846	4101.538462	4514.358974	4439.487179	4267.179487	3954.871795	1727.000000	1677.000000	99.937000	0.000000	0.000000	0.000000	0.000000	1	1	0	0	0	0	0	0	0	0	0	0	0	0	0	0
127.000000	4356.410256	4387.692308	4405.128205	3713.846154	4381.538462	4609.230769	4632.820513	4526.153846	4026.153846	4100.000000	4511.794872	4436.923077	4268.717949	3952.820513	1726.000000	1677.000000	99.937000	0.000000	0.000000	0.000000	0.000000	1	1	0	0	0	0	0	0	0	0	0	0	0	0	0	0
128.000000	4360.000000	4387.692308	4406.666667	3713.333333	4381.538462	4611.282051	4630.769231	4524.615385	4027.179487	4103.589744	4513.333333	4437.948718	4270.769231	3955.384615	1726.000000	1677.000000	99.952000	0.000000	0.000000	0.000000	0.000000	1	1	0	0	0	0	0	0	0	0	0	0	0	0	0	0
0.000000	4360.000000	4387.179487	4407.692308	3714.871795	4382.564103	4612.307692	4631.794872	4526.666667	4026.666667	4105.128205	4513.846154	4440.000000	4269.230769	3955.384615	1726.000000	1677.000000	99.952000	0.000000	0.000000	0.000000	0.000000	1	1	0	0	0	0	0	0	0	0	0	0	0	0	0	0
1.000000	4356.410256	4386.666667	4407.692308	3715.897436	4381.538462	4609.743590	4631.282051	4527.692308	4027.179487	4104.615385	4512.820513	4440.512821	4268.717949	3955.384615	1726.000000	1677.000000	99.968000	0.000000	0.000000	0.000000	0.000000	1	1	0	0	0	0	0	0	0	0	0	0	0	0	0	0
2.000000	4355.384615	4387.179487	4408.205128	3713.846154	4379.487179	4608.717949	4630.256410	4528.717949	4028.717949	4101.538462	4512.820513	4440.512821	4267.692308	3956.410256	1726.000000	1677.000000	99.968000	0.000000	0.000000	0.000000	0.000000	1	1	0	0	0	0	0	0	0	0	0	0	0	0	0	0
3.000000	4357.435897	4386.153846	4407.692308	3712.820513	4380.512821	4609.230769	4630.256410	4526.666667	4026.153846	4098.974359	4514.871795	4439.487179	4267.692308	3955.384615	1726.000000	1677.000000	99.984000	0.000000	0.000000	0.000000	0.000000	1	1	0	0	0	0	0	0	0	0	0	0	0	0	0	0
4.000000	4355.897436	4385.128205	4407.179487	3714.358974	4381.538462	4609.743590	4631.282051	4522.051282	4026.153846	4098.461538	4511.794872	4438.461538	4269.743590	3952.307692	1726.000000	1677.000000	99.984000	0.000000	0.000000	0.000000	0.000000	1	1	0	0	0	0	0	0	0	0	0	0	0	0	0	0
5.000000	4354.871795	4387.179487	4407.179487	3712.307692	4378.974359	4611.794872	4631.282051	4522.564103	4028.717949	4099.487179	4511.794872	4437.948718	4269.743590	3954.871795	1726.000000	1676.000000	99.999000	0.000000	0.000000	0.000000	0.000000	1	1	0	0	0	0	0	0	0	0	0	0	0	0	0	0
6.000000	4357.435897	4388.717949	4408.717949	3710.769231	4378.461538	4611.282051	4629.230769	4525.128205	4026.666667	4099.487179	4513.333333	4439.487179	4267.692308	3955.897436	1725.000000	1678.000000	100.004000	0.000000	0.000000	0.000000	0.000000	1	1	0	0	0	0	0	0	0	0	0	0	0	0	0	0
7.000000	4358.974359	4386.666667	4407.692308	3713.846154	4380.000000	4609.230769	4626.666667	4523.076923	4022.564103	4098.461538	4515.384615	4440.512821	4269.230769	3958.461538	1726.000000	1677.000000	100.004000	0.000000	0.000000	0.000000	0.000000	1	1	0	0	0	0	0	0	0	0	0	0	0	0	0	0
8.000000	4356.410256	4385.641026	4406.153846	3716.410256	4379.487179	4610.256410	4629.743590	4525.641026	4025.128205	4098.974359	4515.384615	4441.538462	4269.743590	3960.000000	1725.000000	1677.000000	100.020000	0.000000	0.000000	0.000000	0.000000	1	1	0	0	0	0	0	0	0	0	0	0	0	0	0	0
9.000000	4355.897436	4387.692308	4406.666667	3713.846154	4378.461538	4609.743590	4630.256410	4528.717949	4028.205128	4098.974359	4519.487179	4441.538462	4267.179487	3959.487179	1725.000000	1677.000000	100.020000	0.000000	0.000000	0.000000	0.000000	1	1	0	0	0	0	0	0	0	0	0	0	0	0	0	0
10.000000	4354.871795	4385.641026	4408.717949	3713.846154	4380.512821	4608.717949	4628.205128	4525.128205	4027.179487	4097.948718	4518.974359	4442.564103	4267.179487	3957.948718	1725.000000	1678.000000	100.035000	0.000000	0.000000	0.000000	0.000000	1	1	0	0	0	0	0	0	0	0	0	0	0	0	0	0
11.000000	4357.948718	4383.589744	4408.205128	3714.871795	4380.000000	4610.256410	4627.179487	4524.615385	4026.666667	4100.000000	4516.923077	4443.589744	4268.717949	3960.000000	1726.000000	1677.000000	100.035000	0.000000	0.000000	0.000000	0.000000	1	1	0	0	0	0	0	0	0	0	0	0	0	0	0	0
12.000000	4360.000000	4386.153846	4407.179487	3714.871795	4378.974359	4610.256410	4628.717949	4525.128205	4025.128205	4104.102564	4517.435897	4442.051282	4266.153846	3959.487179	1725.000000	1677.000000	100.051000	0.000000	0.000000	0.000000	0.000000	1	1	0	0	0	0	0	0	0	0	0	0	0	0	0	0
13.000000	4355.897436	4388.205128	4406.666667	3714.358974	4381.025641	4608.717949	4628.205128	4523.076923	4024.102564	4105.128205	4517.435897	4440.000000	4266.153846	3958.974359	1726.000000	1677.000000	100.051000	0.000000	0.000000	0.000000	0.000000	1	1	0	0	0	0	0	0	0	0	0	0	0	0	0	0
14.000000	4353.846154	4386.153846	4407.692308	3711.794872	4380.000000	4608.717949	4628.205128	4524.102564	4025.641026	4102.051282	4517.948718	4440.000000	4269.743590	3960.000000	1726.000000	1677.000000	100.067000	0.000000	0.000000	0.000000	0.000000	1	1	0	0	0	0	0	0	0	0	0	0	0	0	0	0
15.000000	4356.923077	4384.102564	4407.179487	3712.820513	4380.000000	4609.230769	4629.743590	4525.128205	4027.692308	4100.512821	4518.974359	4443.076923	4269.230769	3958.974359	1725.000000	1677.000000	100.067000	0.000000	0.000000	0.000000	0.000000	1	1	0	0	0	0	0	0	0	0	0	0	0	0	0	0
16.000000	4355.897436	4386.666667	4404.615385	3715.384615	4381.538462	4609.230769	4630.769231	4525.641026	4026.666667	4100.512821	4519.487179	4443.076923	4268.205128	3957.435897	1726.000000	1676.000000	100.082000	0.000000	0.000000	0.000000	0.000000	1	1	0	0	0	0	0	0	0	0	0	0	0	0	0	0
17.000000	4354.358974	4389.743590	4405.128205	3713.333333	4382.051282	4610.769231	4630.256410	4526.666667	4023.076923	4101.025641	4516.410256	4439.487179	4270.256410	3957.435897	1725.000000	1677.000000	100.082000	0.000000	0.000000	0.000000	0.000000	1	1	0	0	0	0	0	0	0	0	0	0	0	0	0	0
18.000000	4357.948718	4389.230769	4407.692308	3710.769231	4381.538462	4608.717949	4628.717949	4526.666667	4023.076923	4101.025641	4515.384615	4437.435897	4270.256410	3957.948718	1726.000000	1677.000000	100.098000	0.000000	0.000000	0.000000	0.000000	1	1	0	0	0	0	0	0	0	0	0	0	0	0	0	0
19.000000	4358.974359	4386.666667	4408.205128	3713.333333	4381.025641	4607.692308	4628.205128	4527.692308	4028.205128	4101.025641	4517.435897	4438.461538	4268.717949	3956.923077	1726.000000	1677.000000	100.098000	0.000000	0.000000	0.000000	0.000000	1	1	0	0	0	0	0	0	0	0	0	0	0	0	0	0
20.000000	4356.410256	4387.179487	4405.641026	3715.384615	4379.487179	4611.282051	4629.743590	4526.666667	4028.205128	4100.000000	4520.000000	4441.538462	4267.179487	3957.948718	1726.000000	1677.000000	100.114000	0.000000	0.000000	0.000000	0.000000	1	1	0	0	0	0	0	0	0	0	0	0	0	0	0	0
21.000000	4356.923077	4385.641026	4406.153846	3712.820513	4379.487179	4612.820513	4629.743590	4522.564103	4024.615385	4098.461538	4516.923077	4440.512821	4265.128205	3957.435897	1725.000000	1677.000000	100.118000	0.000000	0.000000	0.000000	0.000000	1	1	0	0	0	0	0	0	0	0	0	0	0	0	0	0
22.000000	4360.000000	4383.589744	4405.641026	3711.794872	4379.487179	4609.230769	4628.205128	4523.076923	4024.615385	4100.000000	4516.923077	4436.410256	4268.205128	3957.948718	1726.000000	1677.000000	100.118000	0.000000	0.000000	0.000000	0.000000	1	1	0	0	0	0	0	0	0	0	0	0	0	0	0	0
23.000000	4357.435897	4387.179487	4405.641026	3713.333333	4378.974359	4607.692308	4628.717949	4525.128205	4026.666667	4104.615385	4517.948718	4439.487179	4270.769231	3956.923077	1726.000000	1677.000000	100.134000	0.000000	0.000000	0.000000	0.000000	1	1	0	0	0	0	0	0	0	0	0	0	0	0	0	0
24.000000	4352.307692	4389.743590	4407.179487	3712.307692	4381.025641	4608.717949	4629.230769	4523.589744	4026.153846	4105.641026	4518.974359	4444.615385	4268.205128	3956.410256	1726.000000	1677.000000	100.134000	0.000000	0.000000	0.000000	0.000000	1	1	0	0	0	0	0	0	0	0	0	0	0	0	0	0
25.000000	4353.846154	4387.692308	4407.692308	3711.282051	4381.025641	4610.256410	4628.717949	4524.102564	4025.128205	4100.000000	4517.435897	4442.051282	4267.692308	3957.435897	1726.000000	1676.000000	100.149000	0.000000	0.000000	0.000000	0.000000	1	1	0	0	0	0	0	0	0	0	0	0	0	0	0	0
26.000000	4359.487179	4387.692308	4406.153846	3714.358974	4379.487179	4610.769231	4628.717949	4527.179487	4026.153846	4100.512821	4518.974359	4441.538462	4269.230769	3960.000000	1726.000000	1678.000000	100.149000	0.000000	0.000000	0.000000	0.000000	1	1	0	0	0	0	0	0	0	0	0	0	0	0	0	0
27.000000	4357.435897	4387.179487	4406.666667	3717.948718	4382.564103	4610.256410	4629.743590	4525.641026	4024.615385	4104.615385	4518.461538	4447.179487	4268.717949	3959.487179	1727.000000	1676.000000	100.165000	0.000000	0.000000	0.000000	0.000000	1	1	0	0	0	0	0	0	0	0	0	0	0	0	0	0
28.000000	4354.871795	4386.666667	4405.641026	3714.871795	4381.538462	4608.717949	4629.743590	4524.615385	4025.641026	4101.025641	4517.435897	4445.641026	4268.205128	3958.974359	1725.000000	1678.000000	100.165000	0.000000	0.000000	0.000000	0.000000	1	1	0	0	0	0	0	0	0	0	0	0	0	0	0	0
29.000000	4357.435897	4387.179487	4404.615385	3710.769231	4377.435897	4609.230769	4627.692308	4526.153846	4026.153846	4097.435897	4516.410256	4441.025641	4269.743590	3957.948718	1726.000000	1677.000000	100.181000	0.000000	0.000000	0.000000	0.000000	1	1	0	0	0	0	0	0	0	0	0	0	0	0	0	0
30.000000	4357.948718	4388.205128	4405.641026	3711.794872	4380.000000	4609.230769	4624.615385	4526.666667	4026.153846	4102.051282	4514.871795	4442.564103	4269.230769	3957.435897	1725.000000	1677.000000	100.181000	0.000000	0.000000	0.000000	0.000000	1	1	0	0	0	0	0	0	0	0	0	0	0	0	0	0
31.000000	4355.897436	4388.205128	4406.666667	3714.871795	4382.564103	4606.666667	4625.128205	4526.666667	4026.153846	4103.589744	4516.410256	4444.102564	4268.205128	3958.461538	1726.000000	1677.000000	100.196000	0.000000	0.000000	0.000000	0.000000	1	1	0	0	0	0	0	0	0	0	0	0	0	0	0	0
32.000000	4357.435897	4384.615385	4408.205128	3713.333333	4380.000000	4608.205128	4629.230769	4526.153846	4025.641026	4101.025641	4518.974359	4441.538462	4270.256410	3957.435897	1726.000000	1677.000000	100.196000	0.000000	0.000000	0.000000	0.000000	1	1	0	0	0	0	0	0	0	0	0	0	0	0	0	0
33.000000	4360.000000	4384.615385	4408.205128	3709.743590	4379.487179	4611.282051	4627.692308	4526.153846	4026.153846	4100.512821	4522.051282	4440.512821	4270.769231	3959.487179	1726.000000	1677.000000	100.216000	0.000000	0.000000	0.000000	0.000000	1	1	0	0	0	0	0	0	0	0	0	0	0	0	0	0
34.000000	4358.461538	4388.205128	4405.641026	3711.282051	4380.000000	4610.769231	4626.153846	4527.692308	4025.128205	4100.512821	4521.538462	4442.564103	4267.692308	3961.538462	1726.000000	1677.000000	100.224000	0.000000	0.000000	0.000000	0.000000	1	1	0	0	0	0	0	0	0	0	0	0	0	0	0	0
35.000000	4355.384615	4387.179487	4405.641026	3713.333333	4378.461538	4611.282051	4627.179487	4523.589744	4027.692308	4098.461538	4520.512821	4442.051282	4266.153846	3960.512821	1726.000000	1678.000000	100.232000	0.000000	0.000000	0.000000	0.000000	1	1	0	0	0	0	0	0	0	0	0	0	0	0	0	0
36.000000	4354.871795	4384.615385	4408.205128	3712.820513	4378.974359	4612.307692	4627.692308	4521.025641	4026.153846	4098.974359	4518.974359	4441.538462	4268.205128	3957.948718	1726.000000	1676.000000	100.235000	0.000000	0.000000	0.000000	0.000000	1	1	0	0	0	0	0	0	0	0	0	0	0	0	0	0
37.000000	4356.923077	4385.641026	4407.179487	3713.846154	4380.000000	4609.743590	4627.179487	4524.102564	4025.128205	4100.512821	4523.076923	4442.051282	4268.205128	3961.025641	1725.000000	1678.000000	100.235000	0.000000	0.000000	0.000000	0.000000	1	1	0	0	0	0	0	0	0	0	0	0	0	0	0	0
38.000000	4357.948718	4386.666667	4406.153846	3714.871795	4379.487179	4609.230769	4626.666667	4525.641026	4028.717949	4100.512821	4523.076923	4443.076923	4268.717949	3960.512821	1726.000000	1676.000000	100.250000	0.000000	0.000000	0.000000	0.000000	1	1	0	0	0	0	0	0	0	0	0	0	0	0	0	0
39.000000	4357.948718	4386.666667	4406.153846	3713.846154	4379.487179	4610.256410	4626.153846	4522.051282	4029.230769	4102.051282	4519.487179	4441.538462	4268.717949	3958.974359	1725.000000	1678.000000	100.250000	0.000000	0.000000	0.000000	0.000000	1	1	0	0	0	0	0	0	0	0	0	0	0	0	0	0
40.000000	4356.923077	4387.692308	4404.102564	3713.846154	4380.512821	4608.717949	4628.205128	4521.025641	4026.666667	4101.538462	4517.435897	4440.000000	4268.205128	3957.948718	1726.000000	1677.000000	100.266000	0.000000	0.000000	0.000000	0.000000	1	1	0	0	0	0	0	0	0	0	0	0	0	0	0	0
41.000000	4356.923077	4388.205128	4404.615385	3712.307692	4378.461538	4607.692308	4629.230769	4524.615385	4027.179487	4102.051282	4521.538462	4441.538462	4268.205128	3958.461538	1726.000000	1677.000000	100.266000	0.000000	0.000000	0.000000	0.000000	1	1	0	0	0	0	0	0	0	0	0	0	0	0	0	0
42.000000	4357.435897	4389.743590	4407.692308	3709.743590	4378.461538	4609.743590	4628.205128	4526.666667	4026.666667	4100.512821	4522.564103	4441.538462	4267.179487	3958.461538	1726.000000	1677.000000	100.281000	0.000000	0.000000	0.000000	0.000000	1	1	0	0	0	0	0	0	0	0	0	0	0	0	0	0
43.000000	4356.923077	4390.256410	4407.179487	3713.333333	4378.974359	4609.230769	4629.230769	4527.179487	4025.128205	4098.461538	4521.538462	4438.974359	4266.153846	3961.025641	1726.000000	1677.000000	100.281000	0.000000	0.000000	0.000000	0.000000	1	1	0	0	0	0	0	0	0	0	0	0	0	0	0	0
44.000000	4355.897436	4386.153846	4404.102564	3716.923077	4378.974359	4606.153846	4629.230769	4526.153846	4026.153846	4103.076923	4521.538462	4441.025641	4267.692308	3961.538462	1726.000000	1677.000000	100.297000	0.000000	0.000000	0.000000	0.000000	1	1	0	0	0	0	0	0	0	0	0	0	0	0	0	0
45.000000	4358.974359	4383.076923	4404.615385	3711.282051	4378.974359	4607.179487	4626.153846	4525.128205	4026.666667	4106.153846	4523.589744	4446.153846	4269.743590	3961.025641	1725.000000	1677.000000	100.297000	0.000000	0.000000	0.000000	0.000000	1	1	0	0	0	0	0	0	0	0	0	0	0	0	0	0
46.000000	4358.974359	4386.666667	4407.179487	3708.205128	4378.974359	4610.256410	4623.076923	4523.589744	4025.128205	4101.025641	4524.615385	4445.128205	4267.692308	3961.025641	1727.000000	1678.000000	100.313000	0.000000	0.000000	0.000000	0.000000	1	1	0	0	0	0	0	0	0	0	0	0	0	0	0	0
47.000000	4354.871795	4388.717949	4408.205128	3713.333333	4378.461538	4609.230769	4622.564103	4522.051282	4024.615385	4096.923077	4524.615385	4442.564103	4268.205128	3963.589744	1726.000000	1677.000000	100.313000	0.000000	0.000000	0.000000	0.000000	1	1	0	0	0	0	0	0	0	0	0	0	0	0	0	0
48.000000	4355.897436	4385.641026	4407.692308	3714.871795	4378.974359	4607.179487	4623.076923	4522.051282	4023.076923	4103.076923	4525.128205	4445.641026	4270.769231	3963.589744	1725.000000	1678.000000	100.333000	0.000000	0.000000	0.000000	0.000000	1	1	0	0	0	0	0	0	0	0	0	0	0	0	0	0
49.000000	4358.461538	4385.641026	4406.153846	3711.282051	4378.974359	4608.205128	4624.615385	4522.564103	4024.102564	4106.153846	4523.589744	4448.205128	4269.743590	3961.025641	1727.000000	1677.000000	100.333000	0.000000	0.000000	0.000000	0.000000	1	1	0	0	0	0	0	0	0	0	0	0	0	0	0	0
50.000000	4357.435897	4388.205128	4404.615385	3714.358974	4376.923077	4608.205128	4624.102564	4522.051282	4025.641026	4100.512821	4525.128205	4444.615385	4268.717949	3964.615385	1725.000000	1678.000000	100.348000	0.000000	0.000000	0.000000	0.000000	1	1	0	0	0	0	0	0	0	0	0	0	0	0	0	0
51.000000	4357.948718	4386.666667	4405.641026	3715.384615	4377.435897	4609.230769	4623.589744	4522.564103	4024.102564	4099.487179	4527.179487	4444.102564	4269.230769	3966.666667	1727.000000	1677.000000	100.348000	0.000000	0.000000	0.000000	0.000000	1	1	0	0	0	0	0	0	0	0	0	0	0	0	0	0
52.000000	4360.000000	4386.153846	4407.179487	3710.256410	4378.974359	4611.282051	4623.589744	4522.564103	4025.128205	4102.564103	4526.666667	4444.102564	4269.743590	3965.641026	1727.000000	1676.000000	100.364000	0.000000	0.000000	0.000000	0.000000	1	1	0	0	0	0	0	0	0	0	0	0	0	0	0	0
53.000000	4358.461538	4389.230769	4406.666667	3711.282051	4380.512821	4609.230769	4624.102564	4523.076923	4025.128205	4103.076923	4523.589744	4443.589744	4269.743590	3961.025641	1727.000000	1678.000000	100.364000	0.000000	0.000000	0.000000	0.000000	1	1	0	0	0	0	0	0	0	0	0	0	0	0	0	0
54.000000	4358.461538	4387.179487	4405.641026	3713.333333	4379.487179	4607.692308	4625.128205	4523.589744	4024.615385	4100.000000	4523.589744	4443.589744	4270.769231	3962.564103	1726.000000	1677.000000	100.379000	0.000000	0.000000	0.000000	0.000000	1	1	0	0	0	0	0	0	0	0	0	0	0	0	0	0
55.000000	4356.923077	4383.589744	4406.666667	3710.256410	4378.974359	4609.230769	4624.615385	4522.564103	4025.641026	4099.487179	4521.538462	4444.102564	4270.256410	3963.076923	1726.000000	1677.000000	100.379000	0.000000	0.000000	0.000000	0.000000	1	1	0	0	0	0	0	0	0	0	0	0	0	0	0	0
56.000000	4354.358974	4386.153846	4406.666667	3712.820513	4382.564103	4610.769231	4625.641026	4522.564103	4025.641026	4102.051282	4522.051282	4443.076923	4267.179487	3960.512821	1727.000000	1677.000000	100.395000	0.000000	0.000000	0.000000	0.000000	1	1	0	0	0	0	0	0	0	0	0	0	0	0	0	0
57.000000	4355.384615	4390.256410	4406.666667	3716.923077	4383.076923	4610.769231	4626.666667	4523.076923	4023.076923	4101.025641	4522.051282	4442.564103	4265.641026	3959.487179	1726.000000	1677.000000	100.395000	0.000000	0.000000	0.000000	0.000000	1	1	0	0	0	0	0	0	0	0	0	0	0	0	0	0
58.000000	4357.435897	4389.743590	4405.641026	3715.384615	4379.487179	4609.230769	4626.666667	4523.076923	4024.102564	4098.974359	4520.512821	4444.102564	4265.641026	3961.025641	1726.000000	1677.000000	100.411000	0.000000	0.000000	0.000000	0.000000	1	1	0	0	0	0	0	0	0	0	0	0	0	0	0	0
59.000000	4356.923077	4388.717949	4405.641026	3713.333333	4378.974359	4609.743590	4629.230769	4523.076923	4026.153846	4097.948718	4516.410256	4442.051282	4266.153846	3959.487179	1727.000000	1676.000000	100.411000	0.000000	0.000000	0.000000	0.000000	1	1	0	0	0	0	0	0	0	0	0	0	0	0	0	0
60.000000	4356.410256	4388.205128	4405.641026	3713.333333	4380.512821	4610.256410	4630.256410	4523.589744	4025.128205	4101.025641	4515.897436	4437.948718	4267.692308	3955.897436	1726.000000	1677.000000	100.426000	0.000000	0.000000	0.000000	0.000000	1	1	0	0	0	0	0	0	0	0	0	0	0	0	0	0
61.000000	4357.948718	4386.666667	4406.666667	3713.333333	4378.974359	4609.743590	4629.743590	4526.666667	4026.153846	4104.102564	4515.897436	4438.461538	4268.717949	3955.384615	1726.000000	1677.000000	100.426000	0.000000	0.000000	0.000000	0.000000	1	1	0	0	0	0	0	0	0	0	0	0	0	0	0	0
62.000000	4359.487179	4386.153846	4408.717949	3715.384615	4379.487179	4610.769231	4630.256410	4527.692308	4027.179487	4104.615385	4513.846154	4438.974359	4267.692308	3957.435897	1726.000000	1677.000000	100.442000	0.000000	0.000000	0.000000	0.000000	1	1	0	0	0	0	0	0	0	0	0	0	0	0	0	0
63.000000	4357.948718	4387.179487	4409.743590	3714.871795	4381.025641	4611.282051	4631.794872	4528.205128	4027.692308	4102.564103	4513.333333	4437.948718	4267.179487	3959.487179	1725.000000	1677.000000	100.450000	0.000000	0.000000	0.000000	0.000000	1	1	0	0	0	0	0	0	0	0	0	0	0	0	0	0
64.000000	4354.358974	4387.179487	4407.692308	3712.820513	4382.051282	4609.230769	4631.794872	4526.666667	4027.692308	4100.000000	4511.794872	4437.435897	4266.666667	3957.435897	1726.000000	1677.000000	100.459000	0.000000	0.000000	0.000000	0.000000	1	1	0	0	0	0	0	0	0	0	0	0	0	0	0	0
65.000000	4356.410256	4388.717949	4405.641026	3714.871795	4382.051282	4609.743590	4630.256410	4526.153846	4026.153846	4101.025641	4510.769231	4437.948718	4266.666667	3952.820513	1726.000000	1677.000000	100.467000	0.000000	0.000000	0.000000	0.000000	1	1	0	0	0	0	0	0	0	0	0	0	0	0	0	0
66.000000	4357.435897	4389.743590	4405.128205	3714.358974	4382.564103	4612.820513	4629.230769	4526.153846	4025.641026	4100.512821	4509.743590	4437.435897	4267.179487	3953.333333	1727.000000	1677.000000	100.475000	0.000000	0.000000	0.000000	0.000000	1	1	0	0	0	0	0	0	0	0	0	0	0	0	0	0
67.000000	4352.820513	4388.717949	4406.666667	3711.794872	4382.564103	4612.820513	4629.743590	4526.666667	4027.692308	4102.051282	4511.282051	4438.461538	4267.692308	3956.410256	1725.000000	1678.000000	100.479000	0.000000	0.000000	0.000000	0.000000	1	1	0	0	0	0	0	0	0	0	0	0	0	0	0	0
68.000000	4353.333333	4388.205128	4407.179487	3712.820513	4382.051282	4610.769231	4631.794872	4525.641026	4026.666667	4105.128205	4509.230769	4438.461538	4268.205128	3954.358974	1727.000000	1676.000000	100.479000	0.000000	0.000000	0.000000	0.000000	1	1	0	0	0	0	0	0	0	0	0	0	0	0	0	0
69.000000	4358.461538	4387.692308	4407.692308	3713.333333	4381.538462	4609.743590	4631.794872	4525.641026	4024.615385	4102.564103	4509.743590	4437.948718	4269.743590	3953.333333	1725.000000	1677.000000	100.495000	0.000000	0.000000	0.000000	0.000000	1	1	0	0	0	0	0	0	0	0	0	0	0	0	0	0
70.000000	4357.435897	4385.641026	4410.256410	3714.871795	4382.051282	4611.282051	4630.769231	4526.666667	4026.666667	4098.974359	4510.769231	4438.461538	4268.717949	3953.846154	1726.000000	1677.000000	100.495000	0.000000	0.000000	0.000000	0.000000	1	1	0	0	0	0	0	0	0	0	0	0	0	0	0	0
71.000000	4354.358974	4388.205128	4409.230769	3717.435897	4381.538462	4611.794872	4630.256410	4526.666667	4026.153846	4097.435897	4511.282051	4436.923077	4265.641026	3953.333333	1725.000000	1677.000000	100.510000	0.000000	0.000000	0.000000	0.000000	1	1	0	0	0	0	0	0	0	0	0	0	0	0	0	0
72.000000	4354.358974	4392.307692	4408.205128	3717.948718	4379.487179	4610.256410	4630.256410	4528.717949	4023.589744	4098.974359	4507.179487	4436.410256	4265.641026	3949.743590	1726.000000	1677.000000	100.510000	0.000000	0.000000	0.000000	0.000000	1	1	0	0	0	0	0	0	0	0	0	0	0	0	0	0
73.000000	4355.384615	4391.282051	4408.717949	3715.384615	4381.025641	4610.256410	4632.307692	4528.205128	4026.153846	4102.051282	4507.692308	4435.897436	4268.205128	3951.282051	1726.000000	1677.000000	100.526000	0.000000	0.000000	0.000000	0.000000	1	1	0	0	0	0	0	0	0	0	0	0	0	0	0	0
74.000000	4356.410256	4389.743590	4409.230769	3714.871795	4382.051282	4615.384615	4633.846154	4526.666667	4027.179487	4102.051282	4508.717949	4434.871795	4268.717949	3952.307692	1726.000000	1677.000000	100.526000	0.000000	0.000000	0.000000	0.000000	1	1	0	0	0	0	0	0	0	0	0	0	0	0	0	0
75.000000	4355.897436	4389.230769	4408.717949	3714.871795	4381.025641	4614.871795	4634.358974	4527.179487	4023.589744	4100.512821	4509.743590	4435.384615	4268.205128	3948.717949	1726.000000	1678.000000	100.541000	0.000000	0.000000	0.000000	0.000000	1	1	0	0	0	0	0	0	0	0	0	0	0	0	0	0
76.000000	4356.410256	4385.128205	4409.230769	3714.358974	4384.615385	4610.769231	4632.307692	4527.692308	4026.153846	4100.512821	4508.205128	4436.923077	4268.205128	3947.692308	1726.000000	1677.000000	100.541000	0.000000	0.000000	0.000000	0.000000	1	1	0	0	0	0	0	0	0	0	0	0	0	0	0	0
77.000000	4357.948718	4383.589744	4408.717949	3714.871795	4385.128205	4610.256410	4632.307692	4525.641026	4031.282051	4102.051282	4506.666667	4434.871795	4267.692308	3950.256410	1726.000000	1677.000000	100.562000	0.000000	0.000000	0.000000	0.000000	1	1	0	0	0	0	0	0	0	0	0	0	0	0	0	0
78.000000	4357.948718	4387.692308	4407.692308	3715.384615	4382.051282	4611.794872	4634.358974	4525.641026	4029.743590	4101.538462	4504.615385	4434.871795	4266.153846	3950.256410	1725.000000	1677.000000	100.562000	0.000000	0.000000	0.000000	0.000000	1	1	0	0	0	0	0	0	0	0	0	0	0	0	0	0
79.000000	4356.923077	4388.205128	4407.692308	3714.358974	4383.589744	4610.256410	4634.358974	4527.692308	4025.641026	4100.000000	4503.589744	4436.923077	4267.692308	3950.256410	1727.000000	1677.000000	100.577000	0.000000	0.000000	0.000000	0.000000	1	1	0	0	0	0	0	0	0	0	0	0	0	0	0	0
80.000000	4356.410256	4387.179487	4405.641026	3714.358974	4385.128205	4610.256410	4632.307692	4528.205128	4026.666667	4098.461538	4506.153846	4436.923077	4268.717949	3952.820513	1726.000000	1677.000000	100.577000	0.000000	0.000000	0.000000	0.000000	1	1	0	0	0	0	0	0	0	0	0	0	0	0	0	0
81.000000	4354.358974	4389.230769	4407.179487	3713.846154	4381.538462	4611.794872	4632.307692	4527.692308	4027.179487	4098.461538	4506.666667	4435.897436	4267.179487	3952.307692	1727.000000	1677.000000	100.593000	0.000000	0.000000	0.000000	0.000000	1	1	0	0	0	0	0	0	0	0	0	0	0	0	0	0
82.000000	4354.358974	4386.666667	4411.794872	3712.820513	4380.512821	4610.769231	4634.358974	4525.641026	4027.692308	4101.538462	4507.179487	4436.410256	4266.666667	3950.256410	1726.000000	1677.000000	100.593000	0.000000	0.000000	0.000000	0.000000	1	1	0	0	0	0	0	0	0	0	0	0	0	0	0	0
83.000000	4354.871795	4382.564103	4409.743590	3712.820513	4383.076923	4611.282051	4634.358974	4526.666667	4030.256410	4105.128205	4506.666667	4437.435897	4267.692308	3949.230769	1726.000000	1678.000000	100.608000	0.000000	0.000000	0.000000	0.000000	1	1	0	0	0	0	0	0	0	0	0	0	0	0	0	0
84.000000	4353.846154	4385.128205	4405.128205	3713.846154	4383.076923	4612.307692	4635.384615	4528.717949	4029.230769	4104.102564	4507.692308	4437.435897	4267.692308	3950.256410	1726.000000	1676.000000	100.608000	0.000000	0.000000	0.000000	0.000000	1	1	0	0	0	0	0	0	0	0	0	0	0	0	0	0
85.000000	4354.871795	4386.666667	4408.717949	3714.358974	4382.051282	4611.794872	4636.923077	4526.666667	4023.589744	4099.487179	4507.179487	4435.897436	4267.692308	3948.717949	1725.000000	1678.000000	100.624000	0.000000	0.000000	0.000000	0.000000	1	1	0	0	0	0	0	0	0	0	0	0	0	0	0	0
86.000000	4357.435897	4384.615385	4410.256410	3714.358974	4381.538462	4611.282051	4635.897436	4525.128205	4025.128205	4100.512821	4507.179487	4434.871795	4268.717949	3949.743590	1727.000000	1677.000000	100.624000	0.000000	0.000000	0.000000	0.000000	1	1	0	0	0	0	0	0	0	0	0	0	0	0	0	0
87.000000	4357.948718	4386.153846	4405.641026	3715.384615	4381.538462	4610.769231	4633.846154	4527.179487	4032.307692	4105.128205	4505.128205	4435.384615	4268.717949	3950.256410	1726.000000	1677.000000	100.640000	0.000000	0.000000	0.000000	0.000000	1	1	0	0	0	0	0	0	0	0	0	0	0	0	0	0
88.000000	4356.923077	4388.205128	4405.128205	3715.897436	4382.051282	4611.794872	4632.307692	4528.205128	4030.256410	4103.589744	4507.179487	4436.410256	4268.205128	3950.769231	1727.000000	1677.000000	100.640000	0.000000	0.000000	0.000000	0.000000	1	1	0	0	0	0	0	0	0	0	0	0	0	0	0	0
89.000000	4355.897436	4387.692308	4410.256410	3714.871795	4381.025641	4613.333333	4632.820513	4527.692308	4027.692308	4100.512821	4506.666667	4438.461538	4268.205128	3948.717949	1726.000000	1677.000000	100.655000	0.000000	0.000000	0.000000	0.000000	1	1	0	0	0	0	0	0	0	0	0	0	0	0	0	0
90.000000	4356.410256	4389.230769	4408.717949	3714.358974	4381.538462	4611.794872	4633.333333	4527.692308	4031.282051	4099.487179	4504.615385	4438.461538	4267.692308	3947.179487	1726.000000	1677.000000	100.655000	0.000000	0.000000	0.000000	0.000000	1	1	0	0	0	0	0	0	0	0	0	0	0	0	0	0
91.000000	4356.923077	4388.717949	4405.641026	3715.897436	4383.076923	4612.307692	4633.846154	4527.179487	4027.692308	4100.000000	4505.128205	4435.897436	4266.666667	3948.717949	1726.000000	1677.000000	100.671000	0.000000	0.000000	0.000000	0.000000	1	1	0	0	0	0	0	0	0	0	0	0	0	0	0	0
92.000000	4356.410256	4385.641026	4407.179487	3712.307692	4381.025641	4615.897436	4634.358974	4526.666667	4022.564103	4100.512821	4509.743590	4434.871795	4267.179487	3951.794872	1726.000000	1677.000000	100.675000	0.000000	0.000000	0.000000	0.000000	1	1	0	0	0	0	0	0	0	0	0	0	0	0	0	0
93.000000	4356.923077	4387.692308	4409.230769	3706.153846	4380.512821	4613.846154	4632.820513	4525.641026	4027.179487	4101.538462	4509.743590	4436.923077	4268.205128	3950.769231	1726.000000	1677.000000	100.675000	0.000000	0.000000	0.000000	0.000000	1	1	0	0	0	0	0	0	0	0	0	0	0	0	0	0
94.000000	4356.923077	4390.256410	4408.205128	3710.256410	4381.538462	4609.743590	4631.282051	4525.641026	4029.743590	4101.025641	4508.717949	4437.435897	4267.692308	3951.282051	1725.000000	1678.000000	100.691000	0.000000	0.000000	0.000000	0.000000	1	1	0	0	0	0	0	0	0	0	0	0	0	0	0	0
95.000000	4354.871795	4387.179487	4406.666667	3717.948718	4382.564103	4611.282051	4632.307692	4527.692308	4024.615385	4099.487179	4510.256410	4436.410256	4267.692308	3953.333333	1727.000000	1677.000000	100.691000	0.000000	0.000000	0.000000	0.000000	1	1	0	0	0	0	0	0	0	0	0	0	0	0	0	0
96.000000	4355.384615	4386.666667	4409.230769	3716.923077	4381.538462	4611.794872	4636.410256	4528.205128	4025.641026	4100.512821	4508.717949	4437.948718	4268.717949	3951.794872	1726.000000	1678.000000	100.707000	0.000000	0.000000	0.000000	0.000000	1	1	0	0	0	0	0	0	0	0	0	0	0	0	0	0
97.000000	4357.435897	4391.282051	4408.717949	3713.846154	4379.487179	4610.256410	4635.384615	4527.692308	4027.179487	4100.512821	4508.205128	4437.948718	4267.692308	3949.230769	1727.000000	1676.000000	100.707000	0.000000	0.000000	0.000000	0.000000	1	1	0	0	0	0	0	0	0	0	0	0	0	0	0	0
98.000000	4356.923077	4392.307692	4405.641026	3717.435897	4378.461538	4610.769231	4631.282051	4529.230769	4024.615385	4101.025641	4512.307692	4435.897436	4268.717949	3951.282051	1726.000000	1677.000000	100.722000	0.000000	0.000000	0.000000	0.000000	1	1	0	0	0	0	0	0	0	0	0	0	0	0	0	0
99.000000	4355.384615	4387.179487	4406.666667	3718.461538	4381.538462	4611.282051	4632.820513	4529.230769	4024.102564	4102.564103	4515.897436	4436.410256	4270.769231	3955.897436	1727.000000	1677.000000	100.722000	0.000000	0.000000	0.000000	0.000000	1	1	0	0	0	0	0	0	0	0	0	0	0	0	0	0
100.000000	4355.897436	4385.128205	4409.230769	3715.384615	4382.564103	4611.282051	4634.358974	4529.230769	4026.153846	4102.051282	4510.256410	4439.487179	4266.666667	3953.846154	1726.000000	1678.000000	100.738000	0.000000	0.000000	0.000000	0.000000	1	1	0	0	0	0	0	0	0	0	0	0	0	0	0	0
101.000000	4356.410256	4387.692308	4408.717949	3714.358974	4380.000000	4610.769231	4631.282051	4529.230769	4028.205128	4101.538462	4508.205128	4439.487179	4265.641026	3950.769231	1726.000000	1676.000000	100.738000	0.000000	0.000000	0.000000	0.000000	1	1	0	0	0	0	0	0	0	0	0	0	0	0	0	0
102.000000	4355.384615	4388.717949	4407.692308	3716.923077	4378.461538	4609.743590	4630.256410	4528.205128	4030.256410	4100.512821	4508.717949	4437.948718	4268.717949	3950.256410	1726.000000	1677.000000	100.754000	0.000000	0.000000	0.000000	0.000000	1	1	0	0	0	0	0	0	0	0	0	0	0	0	0	0
103.000000	4356.410256	4386.153846	4406.666667	3717.435897	4380.512821	4610.769231	4630.256410	4526.153846	4028.717949	4101.538462	4510.256410	4438.461538	4267.179487	3952.820513	1726.000000	1678.000000	100.754000	0.000000	0.000000	0.000000	0.000000	1	1	0	0	0	0	0	0	0	0	0	0	0	0	0	0
104.000000	4357.435897	4384.615385	4407.179487	3714.358974	4381.538462	4612.820513	4630.256410	4526.666667	4026.666667	4104.615385	4509.230769	4437.435897	4265.128205	3952.307692	1726.000000	1677.000000	100.769000	0.000000	0.000000	0.000000	0.000000	1	1	0	0	0	0	0	0	0	0	0	0	0	0	0	0
105.000000	4355.384615	4386.666667	4407.179487	3715.384615	4379.487179	4610.769231	4632.307692	4526.153846	4026.153846	4104.102564	4509.743590	4436.923077	4267.179487	3953.333333	1726.000000	1678.000000	100.769000	0.000000	0.000000	0.000000	0.000000	1	1	0	0	0	0	0	0	0	0	0	0	0	0	0	0
106.000000	4353.846154	4388.205128	4406.666667	3717.948718	4378.461538	4609.743590	4634.871795	4525.128205	4026.666667	4099.487179	4509.230769	4437.435897	4268.717949	3955.384615	1726.000000	1676.000000	100.789000	0.000000	0.000000	0.000000	0.000000	1	1	0	0	0	0	0	0	0	0	0	0	0	0	0	0
107.000000	4355.384615	4387.692308	4406.666667	3715.384615	4381.538462	4611.794872	4634.871795	4526.153846	4026.153846	4100.000000	4512.307692	4437.435897	4269.230769	3956.923077	1725.000000	1677.000000	100.789000	0.000000	0.000000	0.000000	0.000000	1	1	0	0	0	0	0	0	0	0	0	0	0	0	0	0
108.000000	4356.923077	4387.179487	4407.692308	3714.358974	4381.538462	4612.307692	4633.333333	4525.641026	4027.179487	4105.128205	4514.871795	4435.897436	4268.205128	3954.871795	1726.000000	1677.000000	100.789000	0.000000	0.000000	0.000000	0.000000	1	1	0	0	0	0	0	0	0	0	0	0	0	0	0	0
109.000000	4356.923077	4386.666667	4405.641026	3717.435897	4378.974359	4610.256410	4632.307692	4523.589744	4027.179487	4106.153846	4514.871795	4436.410256	4266.153846	3953.333333	1726.000000	1677.000000	100.805000	0.000000	0.000000	0.000000	0.000000	1	1	0	0	0	0	0	0	0	0	0	0	0	0	0	0
110.000000	4356.923077	4387.692308	4405.128205	3716.923077	4380.512821	4610.769231	4630.769231	4524.615385	4026.666667	4102.564103	4514.871795	4438.461538	4267.692308	3953.333333	1726.000000	1677.000000	100.820000	0.000000	0.000000	0.000000	0.000000	1	1	0	0	0	0	0	0	0	0	0	0	0	0	0	0
111.000000	4356.410256	4387.692308	4407.179487	3713.846154	4381.025641	4610.769231	4630.256410	4528.717949	4027.179487	4097.435897	4516.410256	4438.974359	4268.717949	3952.820513	1725.000000	1677.000000	100.820000	0.000000	0.000000	0.000000	0.000000	1	1	0	0	0	0	0	0	0	0	0	0	0	0	0	0
112.000000	4356.410256	4388.205128	4407.692308	3716.410256	4377.948718	4610.769231	4630.769231	4527.179487	4026.153846	4101.025641	4513.846154	4438.461538	4267.179487	3954.358974	1726.000000	1678.000000	100.836000	0.000000	0.000000	0.000000	0.000000	1	1	0	0	0	0	0	0	0	0	0	0	0	0	0	0
113.000000	4357.948718	4389.230769	4406.666667	3717.435897	4378.974359	4611.794872	4630.256410	4524.615385	4026.153846	4106.153846	4509.743590	4437.948718	4268.717949	3956.923077	1726.000000	1677.000000	100.836000	0.000000	0.000000	0.000000	0.000000	1	1	0	0	0	0	0	0	0	0	0	0	0	0	0	0
114.000000	4357.435897	4387.179487	4405.128205	3714.871795	4380.512821	4611.282051	4629.230769	4526.153846	4026.666667	4102.051282	4513.333333	4436.923077	4269.743590	3956.410256	1725.000000	1678.000000	100.836000	0.000000	0.000000	0.000000	0.000000	1	1	0	0	0	0	0	0	0	0	0	0	0	0	0	0
115.000000	4355.897436	4385.128205	4406.666667	3714.871795	4379.487179	4609.230769	4630.769231	4527.692308	4028.717949	4098.974359	4514.871795	4440.000000	4268.717949	3953.333333	1726.000000	1677.000000	100.852000	0.000000	0.000000	0.000000	0.000000	1	1	0	0	0	0	0	0	0	0	0	0	0	0	0	0
116.000000	4357.435897	4386.666667	4409.230769	3716.410256	4381.538462	4611.794872	4631.282051	4526.153846	4030.769231	4101.025641	4514.871795	4442.564103	4268.717949	3955.897436	1726.000000	1677.000000	100.867000	0.000000	0.000000	0.000000	0.000000	1	1	0	0	0	0	0	0	0	0	0	0	0	0	0	0
117.000000	4357.948718	4389.743590	4406.666667	3715.384615	4382.564103	4612.820513	4629.230769	4526.153846	4025.641026	4101.538462	4516.923077	4441.538462	4267.179487	3957.948718	1726.000000	1677.000000	100.867000	0.000000	0.000000	0.000000	0.000000	1	1	0	0	0	0	0	0	0	0	0	0	0	0	0	0
118.000000	4357.435897	4387.179487	4405.128205	3712.820513	4377.948718	4609.230769	4628.205128	4525.641026	4023.589744	4099.487179	4516.410256	4437.948718	4266.153846	3956.923077	1726.000000	1677.000000	100.867000	0.000000	0.000000	0.000000	0.000000	1	1	0	0	0	0	0	0	0	0	0	0	0	0	0	0
119.000000	4356.923077	4385.641026	4408.717949	3713.846154	4376.923077	4609.230769	4629.743590	4525.641026	4031.794872	4100.512821	4513.846154	4438.974359	4268.205128	3955.384615	1726.000000	1677.000000	100.883000	0.000000	0.000000	0.000000	0.000000	1	1	0	0	0	0	0	0	0	0	0	0	0	0	0	0
120.000000	4356.923077	4387.692308	4409.230769	3716.410256	4382.051282	4610.769231	4629.743590	4526.666667	4032.820513	4102.051282	4516.923077	4440.512821	4269.230769	3957.435897	1726.000000	1677.000000	100.883000	0.000000	0.000000	0.000000	0.000000	1	1	0	0	0	0	0	0	0	0	0	0	0	0	0	0
121.000000	4355.384615	4385.641026	4405.641026	3717.435897	4383.589744	4611.282051	4630.256410	4523.076923	4024.615385	4102.564103	4515.384615	4439.487179	4268.205128	3955.897436	1726.000000	1677.000000	100.903000	0.000000	0.000000	0.000000	0.000000	1	1	0	0	0	0	0	0	0	0	0	0	0	0	0	0
122.000000	4356.410256	4383.589744	4406.666667	3716.410256	4380.000000	4609.743590	4630.256410	4521.025641	4025.641026	4102.564103	4513.846154	4437.948718	4267.179487	3955.384615	1726.000000	1677.000000	100.903000	0.000000	0.000000	0.000000	0.000000	1	1	0	0	0	0	0	0	0	0	0	0	0	0	0	0
123.000000	4356.410256	4385.641026	4409.230769	3714.358974	4377.948718	4609.230769	4629.743590	4526.153846	4026.153846	4099.487179	4516.923077	4437.948718	4268.717949	3957.435897	1725.000000	1676.000000	100.919000	0.000000	0.000000	0.000000	0.000000	1	1	0	0	0	0	0	0	0	0	0	0	0	0	0	0
124.000000	4355.384615	4388.205128	4405.641026	3714.358974	4381.025641	4608.717949	4629.743590	4528.717949	4023.076923	4098.461538	4521.025641	4438.974359	4270.256410	3956.923077	1726.000000	1678.000000	100.919000	0.000000	0.000000	0.000000	0.000000	1	1	0	0	0	0	0	0	0	0	0	0	0	0	0	0
125.000000	4354.358974	4385.641026	4406.153846	3714.358974	4383.589744	4609.743590	4629.230769	4525.128205	4025.128205	4099.487179	4517.435897	4440.512821	4267.179487	3957.435897	1727.000000	1676.000000	100.934000	0.000000	0.000000	0.000000	0.000000	1	1	0	0	0	0	0	0	0	0	0	0	0	0	0	0
126.000000	4355.384615	4383.589744	4409.743590	3713.846154	4382.564103	4611.794872	4628.205128	4524.615385	4027.179487	4100.512821	4515.384615	4443.589744	4267.179487	3960.512821	1725.000000	1677.000000	100.934000	0.000000	0.000000	0.000000	0.000000	1	1	0	0	0	0	0	0	0	0	0	0	0	0	0	0
127.000000	4355.384615	4387.179487	4407.692308	3713.333333	4381.538462	4611.794872	4626.666667	4528.205128	4024.102564	4101.025641	4516.410256	4441.538462	4270.256410	3958.974359	1727.000000	1677.000000	100.950000	0.000000	0.000000	0.000000	0.000000	1	1	0	0	0	0	0	0	0	0	0	0	0	0	0	0
128.000000	4355.897436	4389.743590	4403.589744	3714.358974	4379.487179	4609.743590	4626.153846	4527.692308	4025.128205	4100.512821	4517.948718	4441.025641	4269.230769	3956.923077	1726.000000	1677.000000	100.950000	0.000000	0.000000	0.000000	0.000000	1	1	0	0	0	0	0	0	0	0	0	0	0	0	0	0
0.000000	4358.461538	4387.179487	4405.128205	3714.358974	4378.461538	4610.256410	4626.153846	4525.641026	4027.179487	4100.000000	4520.000000	4445.641026	4267.179487	3960.000000	1726.000000	1677.000000	100.966000	0.000000	0.000000	0.000000	0.000000	1	1	0	0	0	0	0	0	0	0	0	0	0	0	0	0
1.000000	4356.923077	4386.666667	4409.230769	3714.871795	4379.487179	4610.769231	4626.666667	4525.641026	4025.128205	4100.512821	4517.948718	4443.589744	4268.717949	3958.461538	1725.000000	1677.000000	100.966000	0.000000	0.000000	0.000000	0.000000	1	1	0	0	0	0	0	0	0	0	0	0	0	0	0	0
2.000000	4354.358974	4388.205128	4407.692308	3715.897436	4379.487179	4609.230769	4626.153846	4524.615385	4025.641026	4101.538462	4518.461538	4441.025641	4269.230769	3955.897436	1726.000000	1677.000000	100.981000	0.000000	0.000000	0.000000	0.000000	1	1	0	0	0	0	0	0	0	0	0	0	0	0	0	0
3.000000	4356.923077	4387.692308	4407.179487	3714.358974	4377.435897	4609.743590	4627.692308	4523.076923	4028.205128	4100.000000	4517.948718	4445.641026	4266.666667	3957.948718	1726.000000	1677.000000	100.981000	0.000000	0.000000	0.000000	0.000000	1	1	0	0	0	0	0	0	0	0	0	0	0	0	0	0
4.000000	4356.923077	4388.205128	4407.692308	3713.333333	4377.948718	4610.769231	4628.717949	4524.615385	4028.205128	4101.538462	4518.974359	4447.179487	4269.230769	3960.512821	1726.000000	1678.000000	100.997000	0.000000	0.000000	0.000000	0.000000	1	1	0	0	0	0	0	0	0	0	0	0	0	0	0	0
5.000000	4354.871795	4387.692308	4405.641026	3714.871795	4381.025641	4609.230769	4626.666667	4527.179487	4025.641026	4105.641026	4517.435897	4442.051282	4271.282051	3958.461538	1726.000000	1676.000000	100.997000	0.000000	0.000000	0.000000	0.000000	1	1	0	0	0	0	0	0	0	0	0	0	0	0	0	0
6.000000	4356.923077	4385.128205	4406.153846	3712.307692	4380.512821	4609.230769	4625.128205	4523.589744	4025.128205	4103.076923	4518.974359	4440.512821	4268.717949	3958.974359	1725.000000	1678.000000	101.013000	0.000000	0.000000	0.000000	0.000000	1	1	0	0	0	0	0	0	0	0	0	0	0	0	0	0
7.000000	4358.461538	4385.128205	4410.256410	3710.769231	4378.974359	4609.743590	4625.641026	4520.512821	4027.179487	4100.000000	4520.512821	4441.025641	4265.641026	3956.923077	1727.000000	1676.000000	101.017000	0.000000	0.000000	0.000000	0.000000	1	1	0	0	0	0	0	0	0	0	0	0	0	0	0	0
8.000000	4356.923077	4388.205128	4408.205128	3712.820513	4380.000000	4609.230769	4626.666667	4523.589744	4027.692308	4101.025641	4519.487179	4438.974359	4268.205128	3954.871795	1726.000000	1677.000000	101.017000	0.000000	0.000000	0.000000	0.000000	1	1	0	0	0	0	0	0	0	0	0	0	0	0	0	0
9.000000	4356.410256	4388.205128	4405.128205	3714.871795	4381.538462	4609.230769	4627.692308	4527.692308	4024.615385	4101.538462	4517.948718	4441.025641	4270.256410	3955.897436	1727.000000	1677.000000	101.033000	0.000000	0.000000	0.000000	0.000000	1	1	0	0	0	0	0	0	0	0	0	0	0	0	0	0
10.000000	4359.487179	4386.666667	4406.666667	3713.846154	4381.538462	4609.230769	4629.230769	4527.179487	4023.589744	4101.025641	4519.487179	4444.102564	4268.717949	3960.512821	1726.000000	1677.000000	101.033000	0.000000	0.000000	0.000000	0.000000	1	1	0	0	0	0	0	0	0	0	0	0	0	0	0	0
11.000000	4358.974359	4388.205128	4406.666667	3712.820513	4381.025641	4609.743590	4629.743590	4525.128205	4025.641026	4101.025641	4518.974359	4443.076923	4267.179487	3958.974359	1726.000000	1678.000000	101.048000	0.000000	0.000000	0.000000	0.000000	1	1	0	0	0	0	0	0	0	0	0	0	0	0	0	0
12.000000	4357.948718	4390.256410	4404.102564	3713.333333	4379.487179	4611.282051	4628.205128	4525.128205	4027.179487	4101.538462	4519.487179	4439.487179	4268.205128	3957.435897	1726.000000	1677.000000	101.048000	0.000000	0.000000	0.000000	0.000000	1	1	0	0	0	0	0	0	0	0	0	0	0	0	0	0
13.000000	4356.410256	4389.230769	4406.153846	3714.358974	4378.461538	4610.256410	4626.153846	4523.589744	4025.641026	4100.000000	4521.538462	4440.000000	4269.743590	3961.538462	1726.000000	1677.000000	101.064000	0.000000	0.000000	0.000000	0.000000	1	1	0	0	0	0	0	0	0	0	0	0	0	0	0	0
14.000000	4356.923077	4388.205128	4408.205128	3715.384615	4379.487179	4607.692308	4625.641026	4523.076923	4022.051282	4098.974359	4521.538462	4442.564103	4269.743590	3962.051282	1725.000000	1677.000000	101.064000	0.000000	0.000000	0.000000	0.000000	1	1	0	0	0	0	0	0	0	0	0	0	0	0	0	0
15.000000	4357.435897	4389.743590	4407.179487	3714.358974	4378.461538	4608.717949	4627.179487	4524.615385	4025.128205	4101.538462	4522.051282	4441.538462	4269.230769	3957.948718	1726.000000	1677.000000	101.079000	0.000000	0.000000	0.000000	0.000000	1	1	0	0	0	0	0	0	0	0	0	0	0	0	0	0
16.000000	4355.384615	4390.256410	4405.641026	3713.333333	4379.487179	4611.794872	4626.666667	4524.102564	4030.769231	4101.538462	4522.051282	4440.512821	4268.717949	3957.435897	1727.000000	1676.000000	101.079000	0.000000	0.000000	0.000000	0.000000	1	1	0	0	0	0	0	0	0	0	0	0	0	0	0	0
17.000000	4357.435897	4388.205128	4405.641026	3713.333333	4383.076923	4610.256410	4625.128205	4521.538462	4030.256410	4098.974359	4520.512821	4442.051282	4268.205128	3961.538462	1726.000000	1678.000000	101.095000	0.000000	0.000000	0.000000	0.000000	1	1	0	0	0	0	0	0	0	0	0	0	0	0	0	0
18.000000	4360.512821	4386.666667	4408.205128	3713.333333	4381.025641	4607.692308	4626.666667	4522.564103	4026.666667	4097.948718	4520.000000	4442.564103	4267.692308	3962.051282	1727.000000	1677.000000	101.095000	0.000000	0.000000	0.000000	0.000000	1	1	0	0	0	0	0	0	0	0	0	0	0	0	0	0
19.000000	4358.974359	4386.666667	4407.692308	3714.358974	4377.948718	4607.692308	4627.179487	4522.564103	4025.641026	4098.974359	4522.051282	4444.102564	4266.666667	3961.025641	1726.000000	1678.000000	101.111000	0.000000	0.000000	0.000000	0.000000	1	1	0	0	0	0	0	0	0	0	0	0	0	0	0	0
20.000000	4356.410256	4387.692308	4407.179487	3714.871795	4381.538462	4608.205128	4625.641026	4522.051282	4026.666667	4100.512821	4520.000000	4447.179487	4266.153846	3959.487179	1726.000000	1677.000000	101.111000	0.000000	0.000000	0.000000	0.000000	1	1	0	0	0	0	0	0	0	0	0	0	0	0	0	0
21.000000	4358.974359	4387.692308	4407.179487	3713.846154	4381.025641	4610.256410	4626.666667	4522.051282	4026.666667	4101.025641	4522.051282	4447.692308	4267.179487	3960.000000	1725.000000	1677.000000	101.131000	0.000000	0.000000	0.000000	0.000000	1	1	0	0	0	0	0	0	0	0	0	0	0	0	0	0
22.000000	4358.974359	4387.179487	4405.641026	3712.307692	4377.435897	4611.282051	4627.179487	4524.102564	4025.128205	4100.512821	4524.102564	4444.102564	4267.692308	3962.051282	1726.000000	1678.000000	101.131000	0.000000	0.000000	0.000000	0.000000	1	1	0	0	0	0	0	0	0	0	0	0	0	0	0	0
23.000000	4354.871795	4388.205128	4402.564103	3713.333333	4380.000000	4609.743590	4623.589744	4525.128205	4023.589744	4101.025641	4524.615385	4438.974359	4268.205128	3965.128205	1726.000000	1677.000000	101.146000	0.000000	0.000000	0.000000	0.000000	1	1	0	0	0	0	0	0	0	0	0	0	0	0	0	0
24.000000	4354.358974	4386.666667	4406.666667	3714.358974	4383.076923	4607.692308	4623.589744	4524.102564	4025.128205	4101.025641	4524.102564	4441.025641	4269.230769	3964.615385	1726.000000	1678.000000	101.146000	0.000000	0.000000	0.000000	0.000000	1	1	0	0	0	0	0	0	0	0	0	0	0	0	0	0
25.000000	4357.435897	4386.153846	4409.230769	3712.820513	4378.974359	4608.205128	4627.179487	4523.589744	4026.153846	4100.000000	4527.692308	4445.128205	4269.230769	3962.051282	1726.000000	1676.000000	101.162000	0.000000	0.000000	0.000000	0.000000	1	1	0	0	0	0	0	0	0	0	0	0	0	0	0	0
26.000000	4358.461538	4387.179487	4406.153846	3713.846154	4377.435897	4608.717949	4626.666667	4523.076923	4024.615385	4103.589744	4527.179487	4444.615385	4268.717949	3961.025641	1726.000000	1677.000000	101.162000	0.000000	0.000000	0.000000	0.000000	1	1	0	0	0	0	0	0	0	0	0	0	0	0	0	0
27.000000	4358.461538	4386.153846	4405.128205	3713.333333	4380.000000	4608.205128	4624.615385	4521.538462	4024.102564	4104.102564	4526.666667	4442.564103	4269.230769	3964.102564	1726.000000	1676.000000	101.178000	0.000000	0.000000	0.000000	0.000000	1	1	0	0	0	0	0	0	0	0	0	0	0	0	0	0
28.000000	4357.435897	4386.666667	4407.179487	3710.769231	4381.025641	4608.205128	4624.102564	4522.051282	4025.128205	4097.948718	4526.666667	4444.615385	4268.717949	3964.102564	1726.000000	1678.000000	101.178000	0.000000	0.000000	0.000000	0.000000	1	1	0	0	0	0	0	0	0	0	0	0	0	0	0	0
29.000000	4356.923077	4387.179487	4405.641026	3712.307692	4378.974359	4608.717949	4623.589744	4522.564103	4027.179487	4099.487179	4526.666667	4446.666667	4268.205128	3962.564103	1727.000000	1676.000000	101.193000	0.000000	0.000000	0.000000	0.000000	1	1	0	0	0	0	0	0	0	0	0	0	0	0	0	0
30.000000	4357.948718	4385.641026	4403.589744	3715.897436	4377.948718	4609.743590	4624.102564	4522.564103	4026.666667	4102.051282	4527.179487	4445.641026	4269.230769	3964.102564	1725.000000	1678.000000	101.193000	0.000000	0.000000	0.000000	0.000000	1	1	0	0	0	0	0	0	0	0	0	0	0	0	0	0
31.000000	4359.487179	4385.641026	4407.179487	3715.384615	4377.948718	4609.230769	4624.102564	4522.564103	4024.615385	4100.512821	4528.205128	4446.666667	4270.256410	3965.641026	1727.000000	1677.000000	101.209000	0.000000	0.000000	0.000000	0.000000	1	1	0	0	0	0	0	0	0	0	0	0	0	0	0	0
32.000000	4359.487179	4388.205128	4408.205128	3713.333333	4376.923077	4607.692308	4624.102564	4523.589744	4025.128205	4101.025641	4528.205128	4447.179487	4268.717949	3964.615385	1725.000000	1677.000000	101.209000	0.000000	0.000000	0.000000	0.000000	1	1	0	0	0	0	0	0	0	0	0	0	0	0	0	0
33.000000	4358.974359	4388.717949	4405.128205	3713.846154	4378.461538	4608.717949	4624.615385	4523.589744	4025.641026	4100.000000	4526.153846	4446.153846	4266.153846	3963.076923	1726.000000	1678.000000	101.225000	0.000000	0.000000	0.000000	0.000000	1	1	0	0	0	0	0	0	0	0	0	0	0	0	0	0
34.000000	4360.512821	4388.205128	4405.641026	3714.358974	4380.000000	4610.256410	4624.102564	4521.538462	4025.641026	4098.461538	4527.692308	4444.102564	4266.153846	3964.615385	1726.000000	1677.000000	101.225000	0.000000	0.000000	0.000000	0.000000	1	1	0	0	0	0	0	0	0	0	0	0	0	0	0	0
35.000000	4357.435897	4387.179487	4408.717949	3714.358974	4380.000000	4609.230769	4623.589744	4522.051282	4027.179487	4098.974359	4526.153846	4443.076923	4267.179487	3964.615385	1726.000000	1678.000000	101.240000	0.000000	0.000000	0.000000	0.000000	1	1	0	0	0	0	0	0	0	0	0	0	0	0	0	0
36.000000	4354.358974	4386.666667	4406.153846	3713.846154	4381.025641	4609.743590	4624.615385	4524.615385	4027.692308	4098.974359	4523.589744	4443.589744	4268.205128	3961.538462	1727.000000	1677.000000	101.245000	0.000000	0.000000	0.000000	0.000000	1	1	0	0	0	0	0	0	0	0	0	0	0	0	0	0
37.000000	4355.897436	4386.153846	4404.615385	3713.333333	4382.564103	4610.769231	4627.179487	4522.564103	4026.153846	4098.974359	4522.051282	4444.615385	4270.256410	3960.512821	1726.000000	1677.000000	101.245000	0.000000	0.000000	0.000000	0.000000	1	1	0	0	0	0	0	0	0	0	0	0	0	0	0	0
38.000000	4357.435897	4385.641026	4405.128205	3714.871795	4382.051282	4609.230769	4626.153846	4522.051282	4023.589744	4100.000000	4523.589744	4444.615385	4269.743590	3962.051282	1726.000000	1677.000000	101.260000	0.000000	0.000000	0.000000	0.000000	1	1	0	0	0	0	0	0	0	0	0	0	0	0	0	0
39.000000	4356.923077	4387.179487	4405.641026	3714.871795	4380.000000	4607.692308	4624.615385	4526.666667	4025.128205	4101.025641	4521.538462	4443.076923	4267.179487	3959.487179	1726.000000	1677.000000	101.260000	0.000000	0.000000	0.000000	0.000000	1	1	0	0	0	0	0	0	0	0	0	0	0	0	0	0
40.000000	4358.974359	4389.743590	4404.102564	3713.846154	4378.974359	4609.230769	4627.179487	4527.179487	4027.179487	4102.051282	4522.051282	4441.538462	4267.692308	3958.461538	1727.000000	1677.000000	101.276000	0.000000	0.000000	0.000000	0.000000	1	1	0	0	0	0	0	0	0	0	0	0	0	0	0	0
41.000000	4358.461538	4385.641026	4406.153846	3714.358974	4379.487179	4610.256410	4628.205128	4523.589744	4024.102564	4101.025641	4521.538462	4441.538462	4269.743590	3960.512821	1725.000000	1678.000000	101.276000	0.000000	0.000000	0.000000	0.000000	1	1	0	0	0	0	0	0	0	0	0	0	0	0	0	0
42.000000	4357.435897	4383.076923	4407.692308	3714.871795	4380.512821	4608.717949	4626.153846	4523.589744	4023.589744	4100.512821	4520.000000	4442.051282	4268.717949	3960.000000	1726.000000	1677.000000	101.291000	0.000000	0.000000	0.000000	0.000000	1	1	0	0	0	0	0	0	0	0	0	0	0	0	0	0
43.000000	4359.487179	4387.692308	4408.205128	3713.846154	4380.512821	4610.769231	4627.179487	4524.615385	4026.666667	4104.615385	4519.487179	4440.000000	4267.179487	3956.923077	1725.000000	1677.000000	101.291000	0.000000	0.000000	0.000000	0.000000	1	1	0	0	0	0	0	0	0	0	0	0	0	0	0	0
44.000000	4360.512821	4389.743590	4406.666667	3713.846154	4381.538462	4612.307692	4628.205128	4525.128205	4024.102564	4106.153846	4520.512821	4437.435897	4268.205128	3959.487179	1726.000000	1676.000000	101.307000	0.000000	0.000000	0.000000	0.000000	1	1	0	0	0	0	0	0	0	0	0	0	0	0	0	0
45.000000	4357.435897	4387.179487	4406.153846	3713.846154	4381.025641	4609.743590	4629.743590	4524.102564	4023.589744	4102.564103	4517.948718	4438.974359	4269.743590	3958.461538	1726.000000	1677.000000	101.307000	0.000000	0.000000	0.000000	0.000000	1	1	0	0	0	0	0	0	0	0	0	0	0	0	0	0
46.000000	4357.435897	4387.179487	4406.666667	3713.333333	4379.487179	4610.769231	4630.769231	4522.564103	4028.717949	4103.589744	4515.897436	4440.000000	4270.769231	3954.871795	1726.000000	1677.000000	101.323000	0.000000	0.000000	0.000000	0.000000	1	1	0	0	0	0	0	0	0	0	0	0	0	0	0	0
47.000000	4358.461538	4389.230769	4407.179487	3714.871795	4381.025641	4612.307692	4630.256410	4525.128205	4028.205128	4104.615385	4516.923077	4440.512821	4269.230769	3955.384615	1726.000000	1678.000000	101.323000	0.000000	0.000000	0.000000	0.000000	1	1	0	0	0	0	0	0	0	0	0	0	0	0	0	0
48.000000	4356.923077	4389.230769	4406.666667	3715.384615	4381.538462	4610.769231	4629.230769	4526.666667	4023.076923	4099.487179	4515.897436	4439.487179	4268.205128	3956.410256	1726.000000	1676.000000	101.338000	0.000000	0.000000	0.000000	0.000000	1	1	0	0	0	0	0	0	0	0	0	0	0	0	0	0
49.000000	4355.897436	4389.743590	4406.666667	3714.871795	4378.974359	4610.256410	4631.282051	4524.615385	4025.128205	4097.435897	4512.307692	4436.410256	4269.230769	3955.384615	1725.000000	1678.000000	101.338000	0.000000	0.000000	0.000000	0.000000	1	1	0	0	0	0	0	0	0	0	0	0	0	0	0	0
50.000000	4355.897436	4389.230769	4407.179487	3715.384615	4378.461538	4611.282051	4631.794872	4524.102564	4028.717949	4099.487179	4509.743590	4435.384615	4268.717949	3953.846154	1726.000000	1677.000000	101.358000	0.000000	0.000000	0.000000	0.000000	1	1	0	0	0	0	0	0	0	0	0	0	0	0	0	0
51.000000	4357.435897	4389.230769	4407.179487	3715.897436	4381.025641	4609.230769	4629.743590	4525.128205	4027.179487	4098.974359	4512.307692	4437.435897	4268.205128	3953.846154	1725.000000	1677.000000	101.358000	0.000000	0.000000	0.000000	0.000000	1	1	0	0	0	0	0	0	0	0	0	0	0	0	0	0
52.000000	4355.384615	4389.743590	4409.743590	3713.333333	4382.051282	4610.256410	4631.282051	4525.128205	4023.589744	4100.000000	4511.794872	4438.461538	4269.230769	3952.820513	1726.000000	1678.000000	101.374000	0.000000	0.000000	0.000000	0.000000	1	1	0	0	0	0	0	0	0	0	0	0	0	0	0	0
53.000000	4355.897436	4387.179487	4411.282051	3711.794872	4381.538462	4612.307692	4632.820513	4525.128205	4025.128205	4102.051282	4510.256410	4435.897436	4269.230769	3951.794872	1726.000000	1676.000000	101.374000	0.000000	0.000000	0.000000	0.000000	1	1	0	0	0	0	0	0	0	0	0	0	0	0	0	0
54.000000	4356.923077	4386.153846	4407.692308	3713.333333	4381.538462	4610.769231	4632.307692	4524.102564	4027.692308	4101.025641	4507.692308	4434.871795	4267.179487	3950.769231	1726.000000	1677.000000	101.390000	0.000000	0.000000	0.000000	0.000000	1	1	0	0	0	0	0	0	0	0	0	0	0	0	0	0
55.000000	4353.333333	4389.230769	4405.128205	3714.871795	4382.051282	4610.256410	4630.256410	4523.589744	4028.205128	4100.000000	4508.205128	4434.871795	4265.641026	3952.307692	1726.000000	1677.000000	101.390000	0.000000	0.000000	0.000000	0.000000	1	1	0	0	0	0	0	0	0	0	0	0	0	0	0	0
56.000000	4353.846154	4390.769231	4408.717949	3714.358974	4382.051282	4611.282051	4631.794872	4525.641026	4028.205128	4099.487179	4507.179487	4435.897436	4266.666667	3949.743590	1726.000000	1678.000000	101.405000	0.000000	0.000000	0.000000	0.000000	1	1	0	0	0	0	0	0	0	0	0	0	0	0	0	0
57.000000	4357.948718	4388.205128	4407.179487	3713.846154	4381.538462	4608.205128	4631.794872	4526.666667	4025.641026	4098.461538	4507.692308	4436.923077	4268.205128	3947.692308	1726.000000	1676.000000	101.405000	0.000000	0.000000	0.000000	0.000000	1	1	0	0	0	0	0	0	0	0	0	0	0	0	0	0
58.000000	4355.384615	4387.692308	4405.641026	3714.358974	4381.025641	4608.205128	4631.282051	4527.179487	4027.179487	4097.948718	4508.717949	4435.897436	4268.717949	3949.230769	1726.000000	1678.000000	101.421000	0.000000	0.000000	0.000000	0.000000	1	1	0	0	0	0	0	0	0	0	0	0	0	0	0	0
59.000000	4352.307692	4388.205128	4409.230769	3714.871795	4382.051282	4610.769231	4632.820513	4526.153846	4032.820513	4098.974359	4510.256410	4434.358974	4269.743590	3950.769231	1726.000000	1677.000000	101.421000	0.000000	0.000000	0.000000	0.000000	1	1	0	0	0	0	0	0	0	0	0	0	0	0	0	0
60.000000	4355.897436	4389.230769	4409.230769	3715.384615	4382.564103	4610.256410	4631.794872	4526.666667	4030.769231	4099.487179	4508.205128	4436.410256	4269.743590	3949.743590	1725.000000	1677.000000	101.436000	0.000000	0.000000	0.000000	0.000000	1	1	0	0	0	0	0	0	0	0	0	0	0	0	0	0
61.000000	4356.410256	4390.769231	4405.128205	3715.384615	4382.564103	4609.230769	4630.256410	4528.205128	4025.128205	4099.487179	4507.179487	4437.948718	4266.666667	3948.205128	1726.000000	1677.000000	101.436000	0.000000	0.000000	0.000000	0.000000	1	1	0	0	0	0	0	0	0	0	0	0	0	0	0	0
62.000000	4354.358974	4389.230769	4407.179487	3713.846154	4383.076923	4610.769231	4631.282051	4527.179487	4026.153846	4098.974359	4507.179487	4436.410256	4265.128205	3947.692308	1726.000000	1677.000000	101.452000	0.000000	0.000000	0.000000	0.000000	1	1	0	0	0	0	0	0	0	0	0	0	0	0	0	0
63.000000	4356.410256	4387.179487	4412.307692	3713.333333	4383.589744	4611.282051	4631.794872	4526.666667	4027.692308	4100.512821	4506.153846	4435.897436	4268.717949	3949.230769	1725.000000	1677.000000	101.452000	0.000000	0.000000	0.000000	0.000000	1	1	0	0	0	0	0	0	0	0	0	0	0	0	0	0
64.000000	4355.897436	4389.230769	4410.256410	3713.846154	4382.051282	4610.769231	4633.846154	4528.717949	4025.641026	4103.589744	4506.153846	4436.923077	4270.256410	3951.282051	1727.000000	1676.000000	101.468000	0.000000	0.000000	0.000000	0.000000	1	1	0	0	0	0	0	0	0	0	0	0	0	0	0	0
65.000000	4355.384615	4391.794872	4406.666667	3714.871795	4381.538462	4611.794872	4634.358974	4527.692308	4025.641026	4105.641026	4507.179487	4434.871795	4267.692308	3950.769231	1725.000000	1677.000000	101.472000	0.000000	0.000000	0.000000	0.000000	1	1	0	0	0	0	0	0	0	0	0	0	0	0	0	0
66.000000	4357.435897	4388.717949	4406.666667	3715.897436	4382.051282	4611.282051	4631.282051	4527.179487	4027.179487	4104.102564	4508.205128	4434.871795	4268.717949	3951.282051	1726.000000	1677.000000	101.472000	0.000000	0.000000	0.000000	0.000000	1	1	0	0	0	0	0	0	0	0	0	0	0	0	0	0
67.000000	4356.410256	4387.692308	4408.717949	3715.897436	4381.025641	4611.794872	4629.743590	4527.692308	4026.666667	4102.564103	4506.153846	4435.897436	4270.256410	3950.769231	1725.000000	1677.000000	101.488000	0.000000	0.000000	0.000000	0.000000	1	1	0	0	0	0	0	0	0	0	0	0	0	0	0	0
68.000000	4353.846154	4388.717949	4407.179487	3714.358974	4382.051282	4611.794872	4631.282051	4527.692308	4026.666667	4101.025641	4508.205128	4435.384615	4267.692308	3950.256410	1727.000000	1677.000000	101.488000	0.000000	0.000000	0.000000	0.000000	1	1	0	0	0	0	0	0	0	0	0	0	0	0	0	0
69.000000	4355.384615	4387.179487	4404.615385	3713.333333	4382.564103	4611.282051	4633.333333	4526.666667	4027.179487	4101.538462	4508.717949	4435.897436	4267.179487	3950.256410	1725.000000	1677.000000	101.503000	0.000000	0.000000	0.000000	0.000000	1	1	0	0	0	0	0	0	0	0	0	0	0	0	0	0
70.000000	4357.948718	4386.153846	4407.179487	3713.333333	4379.487179	4610.769231	4633.846154	4526.666667	4026.666667	4100.512821	4509.230769	4435.384615	4268.717949	3952.307692	1726.000000	1677.000000	101.503000	0.000000	0.000000	0.000000	0.000000	1	1	0	0	0	0	0	0	0	0	0	0	0	0	0	0
71.000000	4355.897436	4388.205128	4411.282051	3713.846154	4378.974359	4610.256410	4632.820513	4528.205128	4026.666667	4098.974359	4507.179487	4434.358974	4266.153846	3951.794872	1725.000000	1677.000000	101.519000	0.000000	0.000000	0.000000	0.000000	1	1	0	0	0	0	0	0	0	0	0	0	0	0	0	0
72.000000	4355.384615	4389.230769	4408.717949	3713.846154	4382.051282	4610.256410	4631.282051	4527.692308	4026.153846	4101.538462	4509.230769	4433.846154	4266.153846	3951.282051	1726.000000	1677.000000	101.519000	0.000000	0.000000	0.000000	0.000000	1	1	0	0	0	0	0	0	0	0	0	0	0	0	0	0
73.000000	4355.897436	4388.717949	4406.153846	3715.384615	4383.076923	4609.743590	4632.307692	4525.128205	4024.615385	4102.564103	4510.256410	4434.871795	4269.743590	3950.256410	1727.000000	1676.000000	101.535000	0.000000	0.000000	0.000000	0.000000	1	1	0	0	0	0	0	0	0	0	0	0	0	0	0	0
74.000000	4354.358974	4389.743590	4406.153846	3714.871795	4381.025641	4610.769231	4634.358974	4523.589744	4025.641026	4101.025641	4508.717949	4435.897436	4268.717949	3951.282051	1726.000000	1678.000000	101.535000	0.000000	0.000000	0.000000	0.000000	1	1	0	0	0	0	0	0	0	0	0	0	0	0	0	0
75.000000	4353.846154	4387.692308	4408.205128	3714.358974	4381.025641	4613.846154	4633.846154	4525.128205	4025.641026	4100.000000	4506.666667	4435.384615	4267.179487	3953.333333	1726.000000	1677.000000	101.550000	0.000000	0.000000	0.000000	0.000000	1	1	0	0	0	0	0	0	0	0	0	0	0	0	0	0
76.000000	4358.461538	4385.641026	4408.717949	3715.384615	4382.564103	4611.794872	4633.333333	4526.153846	4023.076923	4100.512821	4509.743590	4435.384615	4268.205128	3953.333333	1725.000000	1678.000000	101.550000	0.000000	0.000000	0.000000	0.000000	1	1	0	0	0	0	0	0	0	0	0	0	0	0	0	0
77.000000	4359.487179	4387.179487	4408.717949	3716.923077	4382.564103	4608.205128	4633.846154	4526.153846	4025.641026	4102.564103	4509.743590	4436.410256	4267.179487	3948.717949	1726.000000	1677.000000	101.566000	0.000000	0.000000	0.000000	0.000000	1	1	0	0	0	0	0	0	0	0	0	0	0	0	0	0
78.000000	4355.384615	4388.717949	4408.205128	3714.871795	4380.000000	4610.256410	4633.846154	4527.179487	4031.282051	4104.615385	4507.179487	4435.897436	4266.153846	3948.717949	1725.000000	1677.000000	101.566000	0.000000	0.000000	0.000000	0.000000	1	1	0	0	0	0	0	0	0	0	0	0	0	0	0	0
79.000000	4354.871795	4387.692308	4409.743590	3714.358974	4379.487179	4614.358974	4634.358974	4528.205128	4028.205128	4101.538462	4507.179487	4435.384615	4268.717949	3951.282051	1726.000000	1677.000000	101.586000	0.000000	0.000000	0.000000	0.000000	1	1	0	0	0	0	0	0	0	0	0	0	0	0	0	0
80.000000	4356.923077	4387.692308	4410.256410	3714.871795	4381.538462	4612.820513	4633.333333	4528.205128	4023.589744	4098.461538	4507.692308	4436.410256	4268.717949	3948.205128	1726.000000	1676.000000	101.586000	0.000000	0.000000	0.000000	0.000000	1	1	0	0	0	0	0	0	0	0	0	0	0	0	0	0
81.000000	4356.410256	4388.205128	4408.717949	3713.846154	4383.076923	4611.282051	4633.333333	4528.205128	4027.692308	4100.000000	4506.153846	4434.871795	4267.179487	3947.179487	1726.000000	1677.000000	101.602000	0.000000	0.000000	0.000000	0.000000	1	1	0	0	0	0	0	0	0	0	0	0	0	0	0	0
82.000000	4354.871795	4386.666667	4407.692308	3714.358974	4382.564103	4613.846154	4635.384615	4528.717949	4028.205128	4100.512821	4503.589744	4433.846154	4267.692308	3947.692308	1726.000000	1677.000000	101.602000	0.000000	0.000000	0.000000	0.000000	1	1	0	0	0	0	0	0	0	0	0	0	0	0	0	0
83.000000	4355.384615	4387.692308	4406.666667	3714.358974	4382.051282	4613.333333	4636.410256	4528.717949	4025.641026	4100.512821	4502.564103	4437.435897	4268.205128	3945.641026	1726.000000	1677.000000	101.617000	0.000000	0.000000	0.000000	0.000000	1	1	0	0	0	0	0	0	0	0	0	0	0	0	0	0
84.000000	4355.897436	4387.179487	4406.666667	3713.846154	4382.051282	4612.307692	4635.897436	4527.692308	4028.717949	4100.512821	4501.538462	4436.923077	4267.692308	3944.102564	1725.000000	1677.000000	101.617000	0.000000	0.000000	0.000000	0.000000	1	1	0	0	0	0	0	0	0	0	0	0	0	0	0	0
85.000000	4355.384615	4385.641026	4408.717949	3714.871795	4382.051282	4613.333333	4636.923077	4527.179487	4029.743590	4100.512821	4504.102564	4431.282051	4267.179487	3948.205128	1726.000000	1678.000000	101.633000	0.000000	0.000000	0.000000	0.000000	1	1	0	0	0	0	0	0	0	0	0	0	0	0	0	0
86.000000	4354.871795	4387.692308	4410.769231	3715.897436	4381.025641	4614.358974	4637.948718	4527.179487	4025.641026	4101.025641	4502.564103	4431.282051	4269.230769	3947.179487	1726.000000	1676.000000	101.633000	0.000000	0.000000	0.000000	0.000000	1	1	0	0	0	0	0	0	0	0	0	0	0	0	0	0
87.000000	4354.871795	4388.717949	4408.717949	3715.384615	4382.051282	4611.282051	4635.897436	4527.179487	4027.179487	4101.538462	4501.538462	4434.871795	4268.717949	3947.179487	1725.000000	1678.000000	101.649000	0.000000	0.000000	0.000000	0.000000	1	1	0	0	0	0	0	0	0	0	0	0	0	0	0	0
88.000000	4353.333333	4387.692308	4406.666667	3714.871795	4383.076923	4610.769231	4635.897436	4528.205128	4027.692308	4100.000000	4502.051282	4435.897436	4265.641026	3948.205128	1727.000000	1677.000000	101.649000	0.000000	0.000000	0.000000	0.000000	1	1	0	0	0	0	0	0	0	0	0	0	0	0	0	0
89.000000	4351.794872	4389.743590	4406.666667	3714.358974	4382.051282	4612.307692	4634.358974	4528.205128	4024.615385	4101.538462	4504.615385	4434.358974	4267.692308	3948.205128	1726.000000	1677.000000	101.664000	0.000000	0.000000	0.000000	0.000000	1	1	0	0	0	0	0	0	0	0	0	0	0	0	0	0
