Counter	AF3	F7	F3	FC5	T7	P7	O1	O2	P8	T8	FC6	F4	F8	AF4	GyroX	GyroY	Timestamp	FUNC_ID	FUNC_VALUE	MARKER	SYNC_SIGNAL	CMS_Q	DRL_Q	AF3_Q	F7_Q	F3_Q	FC5_Q	T7_Q	P7_Q	O1_Q	O2_Q	P8_Q	T8_Q	FC6_Q	F4_Q	F8_Q	AF4_Q
6.000000	4356.410256	4386.666667	4409.230769	3716.410256	4382.564103	4611.794872	4633.333333	4522.564103	4027.179487	4104.615385	4515.897436	4441.538462	4268.205128	3962.564103	1734.000000	1677.000000	40.293000	0.000000	0.000000	0.000000	0.000000	0	0	0	0	0	0	0	0	0	0	0	0	0	0	0	0
7.000000	4357.948718	4388.717949	4408.717949	3714.358974	4382.051282	4612.307692	4632.307692	4525.128205	4027.692308	4103.076923	4518.461538	4438.974359	4267.179487	3961.538462	1733.000000	1678.000000	40.309000	0.000000	0.000000	0.000000	0.000000	0	0	0	0	0	0	0	0	0	0	0	0	0	0	0	0
8.000000	4356.923077	4389.230769	4410.256410	3713.333333	4384.102564	4611.282051	4628.717949	4524.615385	4029.230769	4102.564103	4517.948718	4439.487179	4266.153846	3961.025641	1734.000000	1677.000000	40.309000	0.000000	0.000000	0.000000	0.000000	0	0	0	0	0	0	0	0	0	0	0	0	0	0	0	0
9.000000	4356.410256	4386.666667	4409.743590	3713.846154	4384.615385	4611.282051	4629.743590	4524.102564	4025.641026	4103.589744	4515.897436	4438.974359	4266.153846	3963.589744	1733.000000	1678.000000	40.325000	0.000000	0.000000	0.000000	0.000000	0	0	0	0	0	0	0	0	0	0	0	0	0	0	0	0
10.000000	4357.948718	4386.153846	4407.692308	3712.820513	4381.538462	4611.282051	4630.256410	4524.615385	4019.487179	4104.615385	4515.897436	4437.435897	4266.666667	3961.538462	1735.000000	1678.000000	40.325000	0.000000	0.000000	0.000000	0.000000	0	0	0	0	0	0	0	0	0	0	0	0	0	0	0	0
11.000000	4360.000000	4385.641026	4407.692308	3712.820513	4380.000000	4610.769231	4627.692308	4523.589744	4022.564103	4102.051282	4517.435897	4440.000000	4267.179487	3960.000000	1734.000000	1677.000000	40.340000	0.000000	0.000000	0.000000	0.000000	0	0	0	0	0	0	0	0	0	0	0	0	0	0	0	0
12.000000	4358.974359	4387.692308	4409.230769	3712.820513	4383.589744	4610.769231	4627.692308	4524.615385	4025.641026	4097.948718	4517.948718	4443.589744	4267.179487	3957.435897	1734.000000	1678.000000	40.340000	0.000000	0.000000	0.000000	0.000000	0	0	0	0	0	0	0	0	0	0	0	0	0	0	0	0
13.000000	4357.435897	4389.230769	4407.179487	3712.820513	4384.615385	4609.230769	4630.256410	4526.666667	4024.102564	4099.487179	4520.000000	4440.512821	4268.205128	3960.512821	1734.000000	1677.000000	40.356000	0.000000	0.000000	0.000000	0.000000	0	0	0	0	0	0	0	0	0	0	0	0	0	0	0	0
14.000000	4358.974359	4387.179487	4406.153846	3712.820513	4383.076923	4610.769231	4630.256410	4526.153846	4028.205128	4104.102564	4518.974359	4437.948718	4269.743590	3963.076923	1734.000000	1677.000000	40.356000	0.000000	0.000000	0.000000	0.000000	0	0	0	0	0	0	0	0	0	0	0	0	0	0	0	0
15.000000	4358.974359	4387.692308	4407.692308	3713.333333	4383.589744	4611.794872	4628.205128	4523.076923	4030.769231	4103.589744	4518.461538	4440.512821	4269.743590	3962.564103	1734.000000	1677.000000	40.372000	0.000000	0.000000	0.000000	0.000000	0	0	0	0	0	0	0	0	0	0	0	0	0	0	0	0
16.000000	4356.923077	4389.743590	4408.717949	3712.820513	4384.102564	4610.769231	4629.230769	4526.153846	4028.205128	4103.076923	4516.410256	4443.076923	4269.230769	3960.512821	1734.000000	1677.000000	40.372000	0.000000	0.000000	0.000000	0.000000	0	0	0	0	0	0	0	0	0	0	0	0	0	0	0	0
17.000000	4358.461538	4389.743590	4408.205128	3712.820513	4383.589744	4609.743590	4632.820513	4528.717949	4028.717949	4104.102564	4515.384615	4438.974359	4268.717949	3961.538462	1734.000000	1677.000000	40.387000	0.000000	0.000000	0.000000	0.000000	0	0	0	0	0	0	0	0	0	0	0	0	0	0	0	0
18.000000	4356.923077	4389.230769	4409.230769	3713.333333	4384.102564	4610.256410	4633.333333	4524.615385	4028.205128	4103.589744	4515.384615	4436.923077	4266.666667	3962.564103	1735.000000	1677.000000	40.387000	0.000000	0.000000	0.000000	0.000000	0	0	0	0	0	0	0	0	0	0	0	0	0	0	0	0
19.000000	4357.435897	4389.230769	4408.717949	3714.871795	4384.102564	4611.794872	4630.769231	4520.512821	4025.641026	4102.564103	4517.435897	4441.538462	4265.641026	3961.538462	1734.000000	1678.000000	40.408000	0.000000	0.000000	0.000000	0.000000	0	0	0	0	0	0	0	0	0	0	0	0	0	0	0	0
20.000000	4361.025641	4389.230769	4408.205128	3713.846154	4382.564103	4613.333333	4631.794872	4525.128205	4025.128205	4103.076923	4517.948718	4442.051282	4265.641026	3958.974359	1734.000000	1677.000000	40.408000	0.000000	0.000000	0.000000	0.000000	0	0	0	0	0	0	0	0	0	0	0	0	0	0	0	0
21.000000	4361.538462	4388.717949	4407.692308	3712.307692	4383.589744	4611.794872	4633.846154	4528.205128	4025.641026	4103.076923	4518.461538	4437.948718	4266.666667	3957.948718	1734.000000	1677.000000	40.423000	0.000000	0.000000	0.000000	0.000000	0	0	0	0	0	0	0	0	0	0	0	0	0	0	0	0
22.000000	4358.974359	4387.179487	4405.641026	3712.820513	4384.615385	4609.230769	4629.230769	4525.128205	4025.641026	4102.564103	4518.974359	4437.948718	4266.153846	3960.000000	1735.000000	1677.000000	40.423000	0.000000	0.000000	0.000000	0.000000	0	0	0	0	0	0	0	0	0	0	0	0	0	0	0	0
23.000000	4358.974359	4386.666667	4406.666667	3711.794872	4382.051282	4610.256410	4625.641026	4524.615385	4027.692308	4098.974359	4516.410256	4440.512821	4264.102564	3961.025641	1733.000000	1677.000000	40.439000	0.000000	0.000000	0.000000	0.000000	0	0	0	0	0	0	0	0	0	0	0	0	0	0	0	0
24.000000	4360.000000	4389.743590	4409.743590	3710.769231	4382.051282	4610.769231	4629.230769	4526.153846	4028.717949	4096.923077	4515.897436	4442.051282	4266.153846	3961.025641	1735.000000	1678.000000	40.439000	0.000000	0.000000	0.000000	0.000000	0	0	0	0	0	0	0	0	0	0	0	0	0	0	0	0
25.000000	4360.000000	4389.230769	4410.769231	3711.794872	4385.641026	4610.256410	4631.794872	4526.153846	4025.128205	4097.435897	4516.410256	4441.538462	4269.230769	3959.487179	1734.000000	1676.000000	40.455000	0.000000	0.000000	0.000000	0.000000	0	0	0	0	0	0	0	0	0	0	0	0	0	0	0	0
26.000000	4358.461538	4386.666667	4408.205128	3712.820513	4384.102564	4612.307692	4629.743590	4525.128205	4024.102564	4095.897436	4516.923077	4437.948718	4269.230769	3960.512821	1734.000000	1678.000000	40.455000	0.000000	0.000000	0.000000	0.000000	0	0	0	0	0	0	0	0	0	0	0	0	0	0	0	0
27.000000	4354.871795	4387.692308	4406.153846	3711.794872	4380.000000	4612.820513	4633.333333	4523.589744	4029.230769	4097.948718	4515.897436	4437.435897	4267.179487	3959.487179	1735.000000	1676.000000	40.470000	0.000000	0.000000	0.000000	0.000000	0	0	0	0	0	0	0	0	0	0	0	0	0	0	0	0
28.000000	4357.435897	4388.205128	4405.128205	3712.820513	4382.051282	4609.230769	4635.897436	4523.589744	4030.256410	4102.051282	4516.410256	4438.974359	4267.692308	3961.538462	1733.000000	1677.000000	40.470000	0.000000	0.000000	0.000000	0.000000	0	0	0	0	0	0	0	0	0	0	0	0	0	0	0	0
29.000000	4361.025641	4386.153846	4406.153846	3715.384615	4383.589744	4608.717949	4630.256410	4523.589744	4023.076923	4100.512821	4517.435897	4440.512821	4268.205128	3960.512821	1734.000000	1678.000000	40.486000	0.000000	0.000000	0.000000	0.000000	0	0	0	0	0	0	0	0	0	0	0	0	0	0	0	0
30.000000	4360.512821	4386.666667	4408.717949	3714.871795	4381.538462	4611.794872	4628.205128	4524.102564	4020.512821	4100.000000	4516.923077	4440.000000	4268.205128	3957.435897	1734.000000	1677.000000	40.486000	0.000000	0.000000	0.000000	0.000000	0	0	0	0	0	0	0	0	0	0	0	0	0	0	0	0
31.000000	4358.974359	4387.692308	4411.282051	3711.794872	4382.051282	4611.794872	4633.846154	4527.179487	4029.230769	4104.102564	4515.897436	4440.000000	4268.717949	3957.948718	1735.000000	1677.000000	40.501000	0.000000	0.000000	0.000000	0.000000	0	0	0	0	0	0	0	0	0	0	0	0	0	0	0	0
32.000000	4359.487179	4387.692308	4410.256410	3711.794872	4384.102564	4610.769231	4632.820513	4526.666667	4030.256410	4104.615385	4515.897436	4439.487179	4267.692308	3963.076923	1734.000000	1677.000000	40.501000	0.000000	0.000000	0.000000	0.000000	0	0	0	0	0	0	0	0	0	0	0	0	0	0	0	0
33.000000	4357.435897	4387.692308	4408.205128	3713.846154	4383.076923	4611.282051	4627.179487	4523.589744	4022.564103	4103.076923	4515.897436	4441.538462	4267.179487	3958.974359	1735.000000	1678.000000	40.517000	0.000000	0.000000	0.000000	0.000000	0	0	0	0	0	0	0	0	0	0	0	0	0	0	0	0
34.000000	4356.410256	4388.205128	4407.179487	3713.333333	4382.051282	4610.769231	4628.205128	4526.153846	4020.512821	4105.128205	4517.948718	4443.589744	4267.179487	3956.410256	1734.000000	1677.000000	40.522000	0.000000	0.000000	0.000000	0.000000	0	0	0	0	0	0	0	0	0	0	0	0	0	0	0	0
35.000000	4358.461538	4387.692308	4408.205128	3711.282051	4382.051282	4610.769231	4630.769231	4525.128205	4023.589744	4103.076923	4518.974359	4442.051282	4266.666667	3961.025641	1734.000000	1678.000000	40.522000	0.000000	0.000000	0.000000	0.000000	0	0	0	0	0	0	0	0	0	0	0	0	0	0	0	0
36.000000	4358.974359	4390.256410	4408.717949	3712.307692	4382.051282	4612.820513	4629.743590	4521.025641	4023.076923	4097.948718	4516.410256	4441.025641	4267.692308	3962.564103	1733.000000	1677.000000	40.537000	0.000000	0.000000	0.000000	0.000000	0	0	0	0	0	0	0	0	0	0	0	0	0	0	0	0
37.000000	4357.948718	4389.230769	4410.769231	3713.333333	4383.076923	4612.307692	4630.769231	4525.641026	4025.641026	4098.461538	4516.410256	4441.025641	4266.153846	3960.000000	1734.000000	1678.000000	40.537000	0.000000	0.000000	0.000000	0.000000	0	0	0	0	0	0	0	0	0	0	0	0	0	0	0	0
38.000000	4357.948718	4385.128205	4411.794872	3711.282051	4383.589744	4610.769231	4632.820513	4530.256410	4030.769231	4099.487179	4517.435897	4440.000000	4265.641026	3961.538462	1735.000000	1677.000000	40.553000	0.000000	0.000000	0.000000	0.000000	0	0	0	0	0	0	0	0	0	0	0	0	0	0	0	0
39.000000	4359.487179	4387.179487	4409.743590	3708.205128	4382.051282	4612.307692	4631.282051	4525.128205	4028.717949	4097.948718	4517.948718	4438.974359	4267.179487	3963.076923	1733.000000	1678.000000	40.553000	0.000000	0.000000	0.000000	0.000000	0	0	0	0	0	0	0	0	0	0	0	0	0	0	0	0
40.000000	4357.435897	4390.769231	4409.230769	3710.256410	4382.051282	4612.307692	4632.307692	4521.025641	4024.102564	4098.461538	4517.435897	4440.512821	4267.179487	3960.000000	1735.000000	1677.000000	40.568000	0.000000	0.000000	0.000000	0.000000	0	0	0	0	0	0	0	0	0	0	0	0	0	0	0	0
41.000000	4355.897436	4389.230769	4409.230769	3712.820513	4383.076923	4610.256410	4633.333333	4526.153846	4022.051282	4103.076923	4519.487179	4440.000000	4266.153846	3960.000000	1734.000000	1677.000000	40.568000	0.000000	0.000000	0.000000	0.000000	0	0	0	0	0	0	0	0	0	0	0	0	0	0	0	0
42.000000	4357.435897	4388.205128	4410.256410	3710.769231	4381.538462	4610.769231	4632.820513	4527.692308	4022.564103	4106.666667	4518.461538	4439.487179	4268.717949	3958.974359	1735.000000	1678.000000	40.584000	0.000000	0.000000	0.000000	0.000000	0	0	0	0	0	0	0	0	0	0	0	0	0	0	0	0
43.000000	4357.948718	4389.230769	4408.205128	3709.743590	4382.051282	4612.307692	4631.794872	4523.589744	4024.615385	4102.564103	4517.948718	4438.461538	4269.230769	3960.512821	1734.000000	1677.000000	40.584000	0.000000	0.000000	0.000000	0.000000	0	0	0	0	0	0	0	0	0	0	0	0	0	0	0	0
44.000000	4356.923077	4387.179487	4407.179487	3712.820513	4383.076923	4611.282051	4629.230769	4523.076923	4024.102564	4098.974359	4518.461538	4439.487179	4266.666667	3958.974359	1734.000000	1677.000000	40.600000	0.000000	0.000000	0.000000	0.000000	0	0	0	0	0	0	0	0	0	0	0	0	0	0	0	0
45.000000	4358.974359	4387.692308	4409.230769	3714.358974	4382.051282	4610.769231	4627.692308	4526.666667	4023.589744	4101.025641	4517.435897	4441.538462	4267.179487	3956.923077	1734.000000	1677.000000	40.600000	0.000000	0.000000	0.000000	0.000000	0	0	0	0	0	0	0	0	0	0	0	0	0	0	0	0
46.000000	4360.512821	4388.717949	4409.743590	3711.794872	4382.051282	4612.307692	4629.230769	4527.179487	4024.102564	4100.512821	4516.410256	4442.564103	4267.179487	3956.923077	1734.000000	1678.000000	40.615000	0.000000	0.000000	0.000000	0.000000	0	0	0	0	0	0	0	0	0	0	0	0	0	0	0	0
47.000000	4360.512821	4387.179487	4405.128205	3712.820513	4383.589744	4612.307692	4628.717949	4525.128205	4025.128205	4098.974359	4516.410256	4441.025641	4264.615385	3961.025641	1734.000000	1677.000000	40.615000	0.000000	0.000000	0.000000	0.000000	0	0	0	0	0	0	0	0	0	0	0	0	0	0	0	0
48.000000	4360.000000	4385.128205	4404.615385	3714.358974	4383.076923	4611.282051	4627.692308	4525.128205	4028.717949	4103.589744	4516.923077	4441.025641	4266.666667	3958.974359	1734.000000	1678.000000	40.635000	0.000000	0.000000	0.000000	0.000000	0	0	0	0	0	0	0	0	0	0	0	0	0	0	0	0
49.000000	4358.461538	4385.641026	4408.205128	3713.333333	4381.538462	4612.820513	4630.769231	4526.153846	4030.256410	4104.615385	4518.461538	4442.051282	4269.743590	3956.410256	1735.000000	1677.000000	40.636000	0.000000	0.000000	0.000000	0.000000	0	0	0	0	0	0	0	0	0	0	0	0	0	0	0	0
50.000000	4356.923077	4385.641026	4409.743590	3712.307692	4382.051282	4613.846154	4633.333333	4526.153846	4025.128205	4100.000000	4517.435897	4442.564103	4270.256410	3956.410256	1733.000000	1677.000000	40.651000	0.000000	0.000000	0.000000	0.000000	1	1	0	0	0	0	0	0	0	0	0	0	0	0	0	0
51.000000	4358.974359	4386.666667	4408.205128	3713.846154	4384.615385	4612.307692	4631.282051	4525.641026	4023.076923	4101.025641	4516.923077	4441.538462	4270.256410	3959.487179	1735.000000	1677.000000	40.651000	0.000000	0.000000	0.000000	0.000000	1	1	0	0	0	0	0	0	0	0	0	0	0	0	0	0
52.000000	4360.000000	4389.743590	4409.743590	3715.897436	4383.076923	4611.794872	4631.794872	4526.666667	4026.153846	4102.564103	4518.461538	4439.487179	4270.769231	3961.538462	1734.000000	1677.000000	40.651000	0.000000	0.000000	0.000000	0.000000	1	1	0	0	0	0	0	0	0	0	0	0	0	0	0	0
53.000000	4357.948718	4389.230769	4412.307692	3714.871795	4381.025641	4611.282051	4632.307692	4525.641026	4026.666667	4100.512821	4520.000000	4439.487179	4269.230769	3961.025641	1735.000000	1677.000000	40.667000	0.000000	0.000000	0.000000	0.000000	1	1	0	0	0	0	0	0	0	0	0	0	0	0	0	0
54.000000	4357.948718	4386.153846	4411.794872	3712.307692	4383.076923	4610.256410	4630.256410	4524.615385	4024.102564	4102.564103	4518.461538	4442.051282	4268.717949	3958.461538	1734.000000	1677.000000	40.667000	0.000000	0.000000	0.000000	0.000000	1	1	0	0	0	0	0	0	0	0	0	0	0	0	0	0
55.000000	4360.000000	4387.692308	4408.717949	3710.256410	4384.102564	4609.743590	4630.256410	4527.179487	4020.512821	4105.128205	4516.410256	4443.589744	4270.769231	3958.974359	1733.000000	1678.000000	40.683000	0.000000	0.000000	0.000000	0.000000	1	1	0	0	0	0	0	0	0	0	0	0	0	0	0	0
56.000000	4359.487179	4390.769231	4408.717949	3712.307692	4382.051282	4609.230769	4630.769231	4526.153846	4025.128205	4103.589744	4515.384615	4441.025641	4269.230769	3961.538462	1735.000000	1677.000000	40.698000	0.000000	0.000000	0.000000	0.000000	1	1	0	0	0	0	0	0	0	0	0	0	0	0	0	0
57.000000	4358.461538	4387.692308	4410.256410	3712.307692	4382.051282	4609.230769	4628.717949	4521.025641	4028.717949	4104.102564	4515.897436	4440.000000	4266.153846	3959.487179	1734.000000	1677.000000	40.698000	0.000000	0.000000	0.000000	0.000000	1	1	0	0	0	0	0	0	0	0	0	0	0	0	0	0
58.000000	4361.538462	4387.179487	4406.666667	3712.307692	4383.076923	4610.256410	4628.717949	4522.564103	4022.051282	4104.615385	4517.948718	4441.538462	4267.179487	3958.461538	1734.000000	1677.000000	40.698000	0.000000	0.000000	0.000000	0.000000	1	1	0	0	0	0	0	0	0	0	0	0	0	0	0	0
59.000000	4361.538462	4390.769231	4403.589744	3711.794872	4383.076923	4611.794872	4631.794872	4528.717949	4020.512821	4101.025641	4516.410256	4441.538462	4268.205128	3958.974359	1734.000000	1678.000000	40.714000	0.000000	0.000000	0.000000	0.000000	1	1	0	0	0	0	0	0	0	0	0	0	0	0	0	0
60.000000	4359.487179	4388.717949	4406.666667	3711.282051	4384.102564	4611.282051	4631.794872	4528.205128	4028.205128	4097.948718	4515.897436	4438.461538	4269.230769	3959.487179	1735.000000	1677.000000	40.714000	0.000000	0.000000	0.000000	0.000000	1	1	0	0	0	0	0	0	0	0	0	0	0	0	0	0
61.000000	4358.461538	4385.128205	4408.205128	3712.820513	4384.102564	4610.769231	4628.717949	4524.615385	4030.769231	4098.461538	4517.435897	4438.461538	4268.717949	3960.000000	1733.000000	1677.000000	40.729000	0.000000	0.000000	0.000000	0.000000	1	1	0	0	0	0	0	0	0	0	0	0	0	0	0	0
62.000000	4358.974359	4387.692308	4406.666667	3715.384615	4383.076923	4612.307692	4627.179487	4524.615385	4028.205128	4102.564103	4517.948718	4438.974359	4268.717949	3963.589744	1735.000000	1678.000000	40.745000	0.000000	0.000000	0.000000	0.000000	1	1	0	0	0	0	0	0	0	0	0	0	0	0	0	0
63.000000	4358.461538	4388.717949	4408.205128	3716.923077	4384.615385	4613.333333	4631.282051	4527.692308	4025.128205	4104.615385	4515.384615	4438.974359	4268.717949	3959.487179	1734.000000	1677.000000	40.750000	0.000000	0.000000	0.000000	0.000000	1	1	0	0	0	0	0	0	0	0	0	0	0	0	0	0
64.000000	4358.974359	4387.179487	4410.256410	3715.384615	4384.102564	4610.256410	4634.871795	4525.641026	4021.538462	4105.128205	4515.384615	4440.512821	4268.205128	3955.897436	1733.000000	1678.000000	40.750000	0.000000	0.000000	0.000000	0.000000	1	1	0	0	0	0	0	0	0	0	0	0	0	0	0	0
65.000000	4359.487179	4385.641026	4409.230769	3712.307692	4382.564103	4608.717949	4631.794872	4522.564103	4022.051282	4104.102564	4516.410256	4442.564103	4266.153846	3957.435897	1734.000000	1677.000000	40.766000	0.000000	0.000000	0.000000	0.000000	1	1	0	0	0	0	0	0	0	0	0	0	0	0	0	0
66.000000	4359.487179	4386.153846	4409.230769	3710.769231	4382.564103	4611.282051	4630.256410	4524.615385	4021.025641	4104.102564	4516.410256	4441.538462	4266.666667	3960.000000	1734.000000	1678.000000	40.766000	0.000000	0.000000	0.000000	0.000000	1	1	0	0	0	0	0	0	0	0	0	0	0	0	0	0
67.000000	4358.974359	4388.717949	4409.743590	3714.358974	4382.051282	4611.794872	4630.769231	4526.153846	4019.487179	4104.102564	4516.923077	4441.025641	4266.666667	3958.974359	1734.000000	1677.000000	40.781000	0.000000	0.000000	0.000000	0.000000	1	1	0	0	0	0	0	0	0	0	0	0	0	0	0	0
68.000000	4359.487179	4390.256410	4407.179487	3716.923077	4381.025641	4611.282051	4629.230769	4523.076923	4024.615385	4100.512821	4516.410256	4441.025641	4265.128205	3960.000000	1734.000000	1678.000000	40.781000	0.000000	0.000000	0.000000	0.000000	1	1	0	0	0	0	0	0	0	0	0	0	0	0	0	0
69.000000	4360.000000	4389.230769	4408.717949	3712.307692	4382.564103	4612.820513	4629.743590	4522.564103	4029.743590	4097.435897	4515.897436	4442.564103	4268.717949	3961.025641	1735.000000	1677.000000	40.797000	0.000000	0.000000	0.000000	0.000000	1	1	0	0	0	0	0	0	0	0	0	0	0	0	0	0
70.000000	4359.487179	4388.205128	4410.256410	3710.256410	4382.564103	4612.307692	4631.282051	4526.666667	4030.769231	4100.512821	4516.923077	4441.025641	4270.256410	3961.538462	1734.000000	1677.000000	40.797000	0.000000	0.000000	0.000000	0.000000	1	1	0	0	0	0	0	0	0	0	0	0	0	0	0	0
71.000000	4359.487179	4388.205128	4406.666667	3712.307692	4381.025641	4610.769231	4630.256410	4524.615385	4026.666667	4102.051282	4517.948718	4439.487179	4268.717949	3962.051282	1734.000000	1677.000000	40.812000	0.000000	0.000000	0.000000	0.000000	1	1	0	0	0	0	0	0	0	0	0	0	0	0	0	0
72.000000	4358.974359	4385.641026	4406.153846	3713.333333	4381.538462	4611.794872	4631.282051	4521.025641	4024.102564	4099.487179	4517.435897	4441.025641	4268.717949	3959.487179	1734.000000	1678.000000	40.812000	0.000000	0.000000	0.000000	0.000000	1	1	0	0	0	0	0	0	0	0	0	0	0	0	0	0
73.000000	4358.461538	4385.128205	4408.717949	3714.358974	4383.076923	4611.282051	4632.820513	4524.102564	4023.589744	4098.461538	4515.897436	4440.512821	4268.717949	3958.974359	1734.000000	1677.000000	40.828000	0.000000	0.000000	0.000000	0.000000	1	1	0	0	0	0	0	0	0	0	0	0	0	0	0	0
74.000000	4360.000000	4388.717949	4408.205128	3713.333333	4382.051282	4611.282051	4630.769231	4527.179487	4023.076923	4100.000000	4515.384615	4438.461538	4267.692308	3957.948718	1734.000000	1678.000000	40.828000	0.000000	0.000000	0.000000	0.000000	1	1	0	0	0	0	0	0	0	0	0	0	0	0	0	0
75.000000	4361.538462	4388.717949	4406.153846	3711.282051	4381.538462	4611.282051	4631.282051	4524.615385	4025.128205	4101.538462	4517.435897	4440.000000	4269.230769	3960.000000	1734.000000	1677.000000	40.844000	0.000000	0.000000	0.000000	0.000000	1	1	0	0	0	0	0	0	0	0	0	0	0	0	0	0
76.000000	4360.512821	4386.666667	4408.205128	3712.820513	4382.051282	4611.794872	4631.794872	4524.615385	4025.128205	4104.615385	4514.871795	4442.051282	4269.743590	3961.025641	1734.000000	1678.000000	40.844000	0.000000	0.000000	0.000000	0.000000	1	1	0	0	0	0	0	0	0	0	0	0	0	0	0	0
77.000000	4361.025641	4389.230769	4409.743590	3715.384615	4382.564103	4612.820513	4629.743590	4527.692308	4024.615385	4105.641026	4515.897436	4440.512821	4268.205128	3962.051282	1734.000000	1677.000000	40.860000	0.000000	0.000000	0.000000	0.000000	1	1	0	0	0	0	0	0	0	0	0	0	0	0	0	0
78.000000	4361.025641	4391.282051	4408.717949	3714.358974	4382.564103	4610.769231	4629.743590	4524.102564	4029.743590	4100.000000	4520.512821	4440.512821	4268.205128	3958.461538	1735.000000	1678.000000	40.864000	0.000000	0.000000	0.000000	0.000000	1	1	0	0	0	0	0	0	0	0	0	0	0	0	0	0
79.000000	4361.538462	4388.717949	4408.205128	3713.333333	4383.076923	4609.743590	4630.769231	4521.025641	4031.794872	4098.974359	4521.025641	4441.538462	4269.743590	3958.461538	1735.000000	1677.000000	40.864000	0.000000	0.000000	0.000000	0.000000	1	1	0	0	0	0	0	0	0	0	0	0	0	0	0	0
80.000000	4361.025641	4386.666667	4408.205128	3712.307692	4382.051282	4611.794872	4632.307692	4526.153846	4023.076923	4103.076923	4515.897436	4440.000000	4267.179487	3958.461538	1733.000000	1678.000000	40.879000	0.000000	0.000000	0.000000	0.000000	1	1	0	0	0	0	0	0	0	0	0	0	0	0	0	0
81.000000	4358.974359	4389.743590	4407.179487	3709.743590	4380.512821	4611.794872	4631.282051	4528.717949	4022.564103	4104.102564	4516.923077	4437.948718	4266.153846	3960.000000	1735.000000	1678.000000	40.879000	0.000000	0.000000	0.000000	0.000000	1	1	0	0	0	0	0	0	0	0	0	0	0	0	0	0
82.000000	4357.435897	4390.769231	4407.179487	3711.794872	4381.538462	4609.230769	4630.256410	4526.153846	4026.666667	4102.564103	4518.461538	4437.948718	4267.179487	3961.538462	1733.000000	1677.000000	40.895000	0.000000	0.000000	0.000000	0.000000	1	1	0	0	0	0	0	0	0	0	0	0	0	0	0	0
83.000000	4359.487179	4388.717949	4408.717949	3716.410256	4383.589744	4609.743590	4632.307692	4525.641026	4023.076923	4103.076923	4517.948718	4441.538462	4265.641026	3960.512821	1733.000000	1678.000000	40.895000	0.000000	0.000000	0.000000	0.000000	1	1	0	0	0	0	0	0	0	0	0	0	0	0	0	0
84.000000	4360.512821	4389.230769	4409.743590	3713.846154	4383.076923	4613.846154	4632.820513	4527.179487	4025.128205	4104.615385	4516.410256	4443.589744	4265.128205	3959.487179	1734.000000	1677.000000	40.911000	0.000000	0.000000	0.000000	0.000000	1	1	0	0	0	0	0	0	0	0	0	0	0	0	0	0
85.000000	4360.000000	4389.743590	4409.230769	3710.769231	4382.564103	4611.282051	4629.743590	4525.641026	4032.307692	4102.564103	4514.871795	4441.538462	4268.205128	3960.512821	1734.000000	1678.000000	40.911000	0.000000	0.000000	0.000000	0.000000	1	1	0	0	0	0	0	0	0	0	0	0	0	0	0	0
86.000000	4360.512821	4388.717949	4409.230769	3712.820513	4382.564103	4607.692308	4627.692308	4524.615385	4030.256410	4102.051282	4515.897436	4441.025641	4268.205128	3961.025641	1734.000000	1677.000000	40.926000	0.000000	0.000000	0.000000	0.000000	1	1	0	0	0	0	0	0	0	0	0	0	0	0	0	0
87.000000	4359.487179	4387.692308	4410.769231	3715.897436	4383.076923	4608.717949	4629.743590	4526.153846	4022.564103	4104.102564	4516.410256	4441.025641	4266.666667	3959.487179	1734.000000	1677.000000	40.926000	0.000000	0.000000	0.000000	0.000000	1	1	0	0	0	0	0	0	0	0	0	0	0	0	0	0
88.000000	4358.461538	4388.205128	4408.717949	3713.333333	4384.102564	4610.256410	4631.794872	4524.102564	4020.512821	4103.589744	4515.897436	4440.512821	4267.179487	3960.512821	1735.000000	1677.000000	40.942000	0.000000	0.000000	0.000000	0.000000	1	1	0	0	0	0	0	0	0	0	0	0	0	0	0	0
89.000000	4359.487179	4388.717949	4407.179487	3709.743590	4383.076923	4611.794872	4631.282051	4523.589744	4022.051282	4100.512821	4515.384615	4443.076923	4267.179487	3958.461538	1734.000000	1677.000000	40.942000	0.000000	0.000000	0.000000	0.000000	1	1	0	0	0	0	0	0	0	0	0	0	0	0	0	0
90.000000	4361.025641	4386.666667	4408.205128	3710.256410	4381.025641	4612.820513	4628.717949	4523.589744	4023.589744	4101.025641	4515.384615	4440.512821	4268.205128	3958.461538	1735.000000	1677.000000	40.958000	0.000000	0.000000	0.000000	0.000000	1	1	0	0	0	0	0	0	0	0	0	0	0	0	0	0
91.000000	4360.512821	4385.128205	4410.256410	3714.358974	4381.538462	4611.282051	4630.256410	4523.076923	4024.102564	4105.128205	4516.923077	4436.923077	4270.769231	3960.000000	1733.000000	1678.000000	40.958000	0.000000	0.000000	0.000000	0.000000	1	1	0	0	0	0	0	0	0	0	0	0	0	0	0	0
92.000000	4360.000000	4387.179487	4408.717949	3716.923077	4382.564103	4610.256410	4631.794872	4522.564103	4026.153846	4103.076923	4518.974359	4440.512821	4269.743590	3964.102564	1734.000000	1677.000000	40.978000	0.000000	0.000000	0.000000	0.000000	1	1	0	0	0	0	0	0	0	0	0	0	0	0	0	0
93.000000	4360.000000	4387.179487	4405.641026	3713.333333	4382.564103	4613.846154	4633.333333	4523.589744	4029.743590	4100.000000	4514.871795	4444.615385	4265.641026	3963.076923	1733.000000	1677.000000	40.978000	0.000000	0.000000	0.000000	0.000000	1	1	0	0	0	0	0	0	0	0	0	0	0	0	0	0
94.000000	4360.512821	4385.641026	4405.128205	3711.794872	4384.102564	4612.307692	4633.333333	4523.589744	4026.666667	4102.051282	4513.846154	4441.025641	4266.153846	3963.589744	1734.000000	1678.000000	40.993000	0.000000	0.000000	0.000000	0.000000	1	1	0	0	0	0	0	0	0	0	0	0	0	0	0	0
95.000000	4359.487179	4386.153846	4408.717949	3712.307692	4384.102564	4608.205128	4629.230769	4522.564103	4022.051282	4101.538462	4518.974359	4440.000000	4268.717949	3962.051282	1734.000000	1676.000000	40.993000	0.000000	0.000000	0.000000	0.000000	1	1	0	0	0	0	0	0	0	0	0	0	0	0	0	0
96.000000	4357.948718	4387.692308	4409.230769	3711.794872	4382.051282	4610.769231	4629.230769	4524.102564	4026.666667	4097.948718	4521.538462	4440.512821	4269.230769	3960.512821	1733.000000	1678.000000	41.009000	0.000000	0.000000	0.000000	0.000000	1	1	0	0	0	0	0	0	0	0	0	0	0	0	0	0
97.000000	4358.974359	4389.743590	4407.179487	3712.307692	4380.512821	4612.820513	4632.820513	4527.692308	4028.205128	4097.948718	4516.923077	4440.000000	4268.205128	3960.512821	1735.000000	1677.000000	41.009000	0.000000	0.000000	0.000000	0.000000	1	1	0	0	0	0	0	0	0	0	0	0	0	0	0	0
98.000000	4358.974359	4392.307692	4409.230769	3715.384615	4381.538462	4608.205128	4628.717949	4526.666667	4022.051282	4100.512821	4515.384615	4439.487179	4267.692308	3963.076923	1734.000000	1677.000000	41.024000	0.000000	0.000000	0.000000	0.000000	1	1	0	0	0	0	0	0	0	0	0	0	0	0	0	0
99.000000	4356.410256	4387.692308	4409.743590	3713.333333	4383.589744	4608.205128	4624.102564	4524.615385	4025.128205	4100.000000	4515.384615	4440.000000	4268.717949	3960.000000	1734.000000	1677.000000	41.024000	0.000000	0.000000	0.000000	0.000000	1	1	0	0	0	0	0	0	0	0	0	0	0	0	0	0
100.000000	4358.461538	4383.589744	4405.128205	3711.282051	4383.076923	4611.794872	4630.256410	4525.641026	4031.794872	4100.000000	4516.923077	4438.974359	4269.230769	3957.948718	1734.000000	1677.000000	41.040000	0.000000	0.000000	0.000000	0.000000	1	1	0	0	0	0	0	0	0	0	0	0	0	0	0	0
101.000000	4361.025641	4389.230769	4403.589744	3713.333333	4382.564103	4610.769231	4633.333333	4527.179487	4027.179487	4104.102564	4517.948718	4440.000000	4267.692308	3962.051282	1735.000000	1677.000000	41.040000	0.000000	0.000000	0.000000	0.000000	1	1	0	0	0	0	0	0	0	0	0	0	0	0	0	0
102.000000	4360.000000	4391.794872	4406.153846	3713.333333	4383.076923	4609.230769	4628.717949	4525.641026	4023.589744	4105.641026	4517.948718	4441.538462	4266.153846	3963.589744	1733.000000	1677.000000	41.056000	0.000000	0.000000	0.000000	0.000000	1	1	0	0	0	0	0	0	0	0	0	0	0	0	0	0
103.000000	4357.435897	4390.769231	4407.692308	3712.820513	4382.051282	4611.282051	4628.205128	4527.179487	4025.641026	4102.051282	4516.923077	4441.025641	4265.128205	3960.512821	1734.000000	1678.000000	41.056000	0.000000	0.000000	0.000000	0.000000	1	1	0	0	0	0	0	0	0	0	0	0	0	0	0	0
104.000000	4357.948718	4390.256410	4406.666667	3712.820513	4381.538462	4614.358974	4629.743590	4527.179487	4021.538462	4100.000000	4516.410256	4439.487179	4265.641026	3958.974359	1734.000000	1677.000000	41.071000	0.000000	0.000000	0.000000	0.000000	1	1	0	0	0	0	0	0	0	0	0	0	0	0	0	0
105.000000	4360.000000	4388.717949	4406.153846	3712.820513	4382.564103	4615.384615	4628.717949	4525.128205	4021.025641	4101.025641	4517.435897	4437.948718	4269.230769	3961.538462	1734.000000	1678.000000	41.071000	0.000000	0.000000	0.000000	0.000000	1	1	0	0	0	0	0	0	0	0	0	0	0	0	0	0
106.000000	4358.974359	4385.641026	4408.717949	3714.871795	4382.051282	4612.307692	4627.692308	4526.153846	4028.205128	4100.512821	4516.410256	4441.025641	4268.205128	3961.025641	1735.000000	1676.000000	41.087000	0.000000	0.000000	0.000000	0.000000	1	1	0	0	0	0	0	0	0	0	0	0	0	0	0	0
107.000000	4357.435897	4389.230769	4409.230769	3715.384615	4381.538462	4610.256410	4629.230769	4525.128205	4027.179487	4101.538462	4515.897436	4442.564103	4265.641026	3958.974359	1734.000000	1678.000000	41.091000	0.000000	0.000000	0.000000	0.000000	1	1	0	0	0	0	0	0	0	0	0	0	0	0	0	0
108.000000	4356.923077	4392.307692	4407.179487	3712.307692	4383.076923	4611.282051	4632.820513	4523.589744	4022.564103	4100.512821	4516.923077	4438.461538	4268.717949	3957.948718	1735.000000	1677.000000	41.091000	0.000000	0.000000	0.000000	0.000000	1	1	0	0	0	0	0	0	0	0	0	0	0	0	0	0
109.000000	4357.435897	4389.743590	4407.179487	3712.820513	4383.076923	4611.282051	4633.333333	4524.102564	4025.641026	4097.435897	4517.948718	4435.384615	4270.256410	3962.051282	1733.000000	1677.000000	41.107000	0.000000	0.000000	0.000000	0.000000	1	1	0	0	0	0	0	0	0	0	0	0	0	0	0	0
110.000000	4357.948718	4388.717949	4409.743590	3715.384615	4383.589744	4610.256410	4630.769231	4525.128205	4024.615385	4098.974359	4516.410256	4439.487179	4266.666667	3960.512821	1735.000000	1677.000000	41.107000	0.000000	0.000000	0.000000	0.000000	1	1	0	0	0	0	0	0	0	0	0	0	0	0	0	0
111.000000	4358.461538	4389.743590	4410.256410	3712.820513	4384.102564	4610.256410	4631.282051	4523.589744	4023.076923	4101.538462	4514.871795	4441.538462	4267.179487	3959.487179	1734.000000	1677.000000	41.123000	0.000000	0.000000	0.000000	0.000000	1	1	0	0	0	0	0	0	0	0	0	0	0	0	0	0
112.000000	4357.435897	4388.205128	4410.256410	3709.230769	4382.051282	4610.256410	4633.846154	4524.615385	4028.205128	4100.000000	4517.435897	4440.000000	4267.179487	3959.487179	1733.000000	1678.000000	41.123000	0.000000	0.000000	0.000000	0.000000	1	1	0	0	0	0	0	0	0	0	0	0	0	0	0	0
113.000000	4359.487179	4388.205128	4409.230769	3709.743590	4380.512821	4611.282051	4632.820513	4526.666667	4028.717949	4101.538462	4518.974359	4438.974359	4265.641026	3960.000000	1734.000000	1677.000000	41.138000	0.000000	0.000000	0.000000	0.000000	1	1	0	0	0	0	0	0	0	0	0	0	0	0	0	0
114.000000	4362.051282	4389.230769	4404.615385	3711.794872	4382.564103	4611.282051	4631.794872	4523.589744	4023.589744	4103.076923	4516.410256	4440.512821	4270.256410	3956.923077	1734.000000	1678.000000	41.138000	0.000000	0.000000	0.000000	0.000000	1	1	0	0	0	0	0	0	0	0	0	0	0	0	0	0
115.000000	4358.974359	4389.230769	4403.076923	3713.333333	4383.076923	4609.230769	4630.769231	4522.051282	4023.076923	4099.487179	4518.461538	4441.538462	4272.307692	3957.948718	1734.000000	1677.000000	41.154000	0.000000	0.000000	0.000000	0.000000	1	1	0	0	0	0	0	0	0	0	0	0	0	0	0	0
116.000000	4356.923077	4387.692308	4407.692308	3712.820513	4381.025641	4610.769231	4630.769231	4526.666667	4029.230769	4097.948718	4520.512821	4442.051282	4267.692308	3960.512821	1733.000000	1678.000000	41.154000	0.000000	0.000000	0.000000	0.000000	1	1	0	0	0	0	0	0	0	0	0	0	0	0	0	0
117.000000	4359.487179	4386.153846	4408.717949	3712.307692	4381.538462	4612.820513	4631.282051	4527.692308	4031.282051	4099.487179	4516.923077	4443.076923	4267.692308	3960.512821	1735.000000	1676.000000	41.169000	0.000000	0.000000	0.000000	0.000000	1	1	0	0	0	0	0	0	0	0	0	0	0	0	0	0
118.000000	4359.487179	4387.692308	4406.153846	3712.820513	4383.076923	4610.256410	4629.230769	4525.641026	4028.205128	4097.948718	4513.846154	4441.538462	4268.717949	3960.512821	1733.000000	1678.000000	41.169000	0.000000	0.000000	0.000000	0.000000	1	1	0	0	0	0	0	0	0	0	0	0	0	0	0	0
119.000000	4356.923077	4389.743590	4408.717949	3714.871795	4383.589744	4610.256410	4627.179487	4527.692308	4026.153846	4096.410256	4516.410256	4439.487179	4266.666667	3959.487179	1735.000000	1678.000000	41.185000	0.000000	0.000000	0.000000	0.000000	1	1	0	0	0	0	0	0	0	0	0	0	0	0	0	0
120.000000	4356.410256	4388.717949	4411.282051	3714.358974	4382.564103	4612.307692	4630.256410	4526.153846	4024.615385	4097.435897	4517.435897	4439.487179	4265.641026	3960.512821	1733.000000	1677.000000	41.185000	0.000000	0.000000	0.000000	0.000000	1	1	0	0	0	0	0	0	0	0	0	0	0	0	0	0
121.000000	4357.948718	4387.692308	4410.256410	3712.307692	4382.564103	4611.282051	4633.333333	4521.538462	4023.076923	4097.435897	4516.410256	4440.000000	4266.666667	3961.025641	1734.000000	1677.000000	41.205000	0.000000	0.000000	0.000000	0.000000	1	1	0	0	0	0	0	0	0	0	0	0	0	0	0	0
122.000000	4360.512821	4390.256410	4409.230769	3712.307692	4383.076923	4611.282051	4631.282051	4524.102564	4023.589744	4096.923077	4517.948718	4439.487179	4269.230769	3961.538462	1733.000000	1677.000000	41.205000	0.000000	0.000000	0.000000	0.000000	1	1	0	0	0	0	0	0	0	0	0	0	0	0	0	0
123.000000	4360.512821	4389.230769	4408.205128	3713.333333	4382.051282	4611.794872	4632.307692	4526.666667	4023.076923	4096.923077	4517.435897	4439.487179	4270.256410	3958.974359	1734.000000	1678.000000	41.221000	0.000000	0.000000	0.000000	0.000000	1	1	0	0	0	0	0	0	0	0	0	0	0	0	0	0
124.000000	4357.948718	4387.692308	4407.179487	3710.256410	4381.538462	4610.769231	4633.333333	4524.615385	4024.615385	4096.923077	4518.461538	4439.487179	4269.230769	3958.461538	1734.000000	1677.000000	41.221000	0.000000	0.000000	0.000000	0.000000	1	1	0	0	0	0	0	0	0	0	0	0	0	0	0	0
125.000000	4356.410256	4388.717949	4409.230769	3708.717949	4382.564103	4609.230769	4629.230769	4526.153846	4030.256410	4097.948718	4518.461538	4441.538462	4267.692308	3960.000000	1734.000000	1678.000000	41.236000	0.000000	0.000000	0.000000	0.000000	1	1	0	0	0	0	0	0	0	0	0	0	0	0	0	0
126.000000	4359.487179	4389.230769	4409.230769	3712.820513	4382.564103	4611.794872	4628.717949	4527.179487	4029.230769	4096.923077	4519.487179	4440.000000	4268.205128	3962.564103	1734.000000	1677.000000	41.236000	0.000000	0.000000	0.000000	0.000000	1	1	0	0	0	0	0	0	0	0	0	0	0	0	0	0
127.000000	4360.512821	4387.692308	4406.153846	3713.846154	4383.076923	4612.307692	4630.769231	4522.564103	4024.102564	4096.923077	4517.948718	4437.948718	4269.230769	3959.487179	1735.000000	1677.000000	41.252000	0.000000	0.000000	0.000000	0.000000	1	1	0	0	0	0	0	0	0	0	0	0	0	0	0	0
128.000000	4359.487179	4388.717949	4406.153846	3712.307692	4383.589744	4609.743590	4628.205128	4521.025641	4026.153846	4101.025641	4516.410256	4438.461538	4269.230769	3957.948718	1734.000000	1677.000000	41.252000	0.000000	0.000000	0.000000	0.000000	1	1	0	0	0	0	0	0	0	0	0	0	0	0	0	0
0.000000	4357.435897	4389.230769	4409.743590	3712.307692	4384.102564	4610.256410	4627.179487	4526.153846	4025.641026	4105.641026	4516.410256	4439.487179	4269.743590	3957.948718	1734.000000	1677.000000	41.268000	0.000000	0.000000	0.000000	0.000000	1	1	0	0	0	0	0	0	0	0	0	0	0	0	0	0
1.000000	4358.461538	4389.743590	4409.743590	3712.820513	4384.615385	4611.794872	4631.282051	4529.230769	4021.538462	4105.641026	4517.948718	4438.974359	4269.743590	3958.461538	1734.000000	1678.000000	41.268000	0.000000	0.000000	0.000000	0.000000	1	1	0	0	0	0	0	0	0	0	0	0	0	0	0	0
2.000000	4359.487179	4391.794872	4406.666667	3712.820513	4384.615385	4610.769231	4632.307692	4524.615385	4025.641026	4102.051282	4516.923077	4440.512821	4268.205128	3955.897436	1734.000000	1678.000000	41.283000	0.000000	0.000000	0.000000	0.000000	1	1	0	0	0	0	0	0	0	0	0	0	0	0	0	0
3.000000	4359.487179	4392.307692	4406.666667	3714.358974	4384.102564	4609.230769	4629.230769	4521.538462	4032.307692	4101.025641	4514.358974	4440.000000	4266.153846	3957.948718	1733.000000	1677.000000	41.283000	0.000000	0.000000	0.000000	0.000000	1	1	0	0	0	0	0	0	0	0	0	0	0	0	0	0
4.000000	4360.000000	4388.717949	4410.256410	3713.846154	4383.589744	4611.282051	4630.256410	4522.051282	4028.205128	4103.076923	4516.923077	4439.487179	4265.641026	3962.051282	1734.000000	1678.000000	41.299000	0.000000	0.000000	0.000000	0.000000	1	1	0	0	0	0	0	0	0	0	0	0	0	0	0	0
5.000000	4360.000000	4386.666667	4411.282051	3711.794872	4383.076923	4613.333333	4634.358974	4525.128205	4021.538462	4103.589744	4520.000000	4441.538462	4266.153846	3961.025641	1734.000000	1677.000000	41.299000	0.000000	0.000000	0.000000	0.000000	1	1	0	0	0	0	0	0	0	0	0	0	0	0	0	0
6.000000	4358.974359	4389.743590	4411.282051	3713.333333	4382.564103	4610.256410	4633.333333	4525.128205	4025.128205	4101.538462	4517.435897	4441.025641	4268.717949	3958.974359	1734.000000	1677.000000	41.315000	0.000000	0.000000	0.000000	0.000000	1	1	0	0	0	0	0	0	0	0	0	0	0	0	0	0
7.000000	4359.487179	4390.256410	4410.256410	3714.871795	4383.589744	4611.282051	4628.717949	4522.051282	4029.230769	4103.076923	4514.871795	4441.025641	4270.769231	3958.974359	1735.000000	1677.000000	41.320000	0.000000	0.000000	0.000000	0.000000	1	1	0	0	0	0	0	0	0	0	0	0	0	0	0	0
8.000000	4360.512821	4388.717949	4408.205128	3713.333333	4382.564103	4614.871795	4628.205128	4523.589744	4026.666667	4105.641026	4517.948718	4441.538462	4267.179487	3961.025641	1733.000000	1678.000000	41.320000	0.000000	0.000000	0.000000	0.000000	1	1	0	0	0	0	0	0	0	0	0	0	0	0	0	0
9.000000	4359.487179	4389.230769	4406.666667	3711.794872	4381.538462	4614.871795	4629.230769	4527.179487	4024.615385	4104.102564	4518.461538	4442.051282	4265.128205	3959.487179	1735.000000	1677.000000	41.335000	0.000000	0.000000	0.000000	0.000000	1	1	0	0	0	0	0	0	0	0	0	0	0	0	0	0
10.000000	4358.461538	4389.230769	4407.179487	3712.820513	4382.051282	4611.282051	4629.230769	4527.692308	4025.128205	4103.076923	4515.897436	4440.512821	4269.230769	3960.512821	1733.000000	1677.000000	41.335000	0.000000	0.000000	0.000000	0.000000	1	1	0	0	0	0	0	0	0	0	0	0	0	0	0	0
11.000000	4357.948718	4386.666667	4408.717949	3712.820513	4382.564103	4610.769231	4632.307692	4525.128205	4025.128205	4105.128205	4515.897436	4439.487179	4269.743590	3960.512821	1734.000000	1678.000000	41.351000	0.000000	0.000000	0.000000	0.000000	1	1	0	0	0	0	0	0	0	0	0	0	0	0	0	0
12.000000	4359.487179	4386.666667	4407.692308	3712.307692	4382.564103	4611.794872	4635.384615	4524.102564	4025.128205	4102.564103	4517.948718	4441.025641	4268.717949	3962.051282	1734.000000	1677.000000	41.351000	0.000000	0.000000	0.000000	0.000000	1	1	0	0	0	0	0	0	0	0	0	0	0	0	0	0
13.000000	4360.512821	4389.743590	4407.692308	3712.307692	4381.538462	4611.794872	4630.769231	4526.666667	4025.641026	4098.974359	4517.435897	4443.076923	4269.230769	3959.487179	1734.000000	1677.000000	41.366000	0.000000	0.000000	0.000000	0.000000	1	1	0	0	0	0	0	0	0	0	0	0	0	0	0	0
14.000000	4360.000000	4388.205128	4408.717949	3712.820513	4382.051282	4610.769231	4626.153846	4527.692308	4024.615385	4101.025641	4518.974359	4440.512821	4267.179487	3960.000000	1734.000000	1677.000000	41.366000	0.000000	0.000000	0.000000	0.000000	1	1	0	0	0	0	0	0	0	0	0	0	0	0	0	0
15.000000	4359.487179	4384.615385	4406.666667	3711.282051	4383.589744	4609.230769	4630.256410	4525.641026	4023.589744	4102.564103	4519.487179	4438.974359	4264.102564	3960.512821	1734.000000	1678.000000	41.382000	0.000000	0.000000	0.000000	0.000000	1	1	0	0	0	0	0	0	0	0	0	0	0	0	0	0
16.000000	4358.974359	4386.666667	4407.179487	3713.333333	4384.615385	4611.282051	4635.897436	4523.589744	4024.102564	4098.461538	4517.435897	4440.000000	4267.179487	3961.025641	1734.000000	1676.000000	41.382000	0.000000	0.000000	0.000000	0.000000	1	1	0	0	0	0	0	0	0	0	0	0	0	0	0	0
17.000000	4356.923077	4390.769231	4410.769231	3716.410256	4382.564103	4613.333333	4631.794872	4522.564103	4025.128205	4097.435897	4514.871795	4441.025641	4267.692308	3961.538462	1734.000000	1678.000000	41.398000	0.000000	0.000000	0.000000	0.000000	1	1	0	0	0	0	0	0	0	0	0	0	0	0	0	0
18.000000	4358.974359	4389.743590	4410.256410	3714.871795	4380.512821	4611.794872	4626.666667	4523.076923	4026.666667	4102.564103	4515.897436	4440.000000	4265.641026	3963.076923	1735.000000	1677.000000	41.398000	0.000000	0.000000	0.000000	0.000000	1	1	0	0	0	0	0	0	0	0	0	0	0	0	0	0
19.000000	4361.538462	4388.205128	4408.205128	3711.794872	4382.051282	4612.307692	4626.666667	4526.153846	4025.641026	4104.615385	4517.435897	4442.051282	4268.205128	3961.025641	1733.000000	1678.000000	41.413000	0.000000	0.000000	0.000000	0.000000	1	1	0	0	0	0	0	0	0	0	0	0	0	0	0	0
20.000000	4357.948718	4388.717949	4409.743590	3713.333333	4384.102564	4612.820513	4628.717949	4526.153846	4022.564103	4103.589744	4515.897436	4443.589744	4271.282051	3957.435897	1734.000000	1677.000000	41.413000	0.000000	0.000000	0.000000	0.000000	1	1	0	0	0	0	0	0	0	0	0	0	0	0	0	0
21.000000	4354.871795	4388.205128	4410.769231	3715.384615	4382.564103	4611.282051	4629.743590	4522.051282	4022.051282	4103.076923	4516.410256	4441.538462	4269.230769	3958.461538	1734.000000	1677.000000	41.433000	0.000000	0.000000	0.000000	0.000000	1	1	0	0	0	0	0	0	0	0	0	0	0	0	0	0
22.000000	4357.435897	4387.692308	4410.769231	3714.358974	4381.025641	4610.256410	4630.769231	4523.589744	4023.589744	4100.512821	4518.461538	4440.000000	4266.666667	3961.538462	1734.000000	1678.000000	41.434000	0.000000	0.000000	0.000000	0.000000	1	1	0	0	0	0	0	0	0	0	0	0	0	0	0	0
23.000000	4360.512821	4388.205128	4408.717949	3712.820513	4382.051282	4610.256410	4629.230769	4526.666667	4024.615385	4097.435897	4518.974359	4441.025641	4269.230769	3963.589744	1734.000000	1676.000000	41.434000	0.000000	0.000000	0.000000	0.000000	1	1	0	0	0	0	0	0	0	0	0	0	0	0	0	0
24.000000	4358.461538	4387.692308	4406.153846	3710.769231	4382.051282	4612.307692	4627.692308	4526.153846	4025.641026	4099.487179	4517.435897	4440.512821	4270.769231	3960.512821	1734.000000	1678.000000	41.450000	0.000000	0.000000	0.000000	0.000000	1	1	0	0	0	0	0	0	0	0	0	0	0	0	0	0
25.000000	4357.948718	4387.692308	4408.717949	3710.769231	4382.564103	4613.333333	4627.692308	4524.615385	4028.205128	4104.615385	4517.435897	4437.948718	4269.230769	3960.512821	1734.000000	1677.000000	41.450000	0.000000	0.000000	0.000000	0.000000	1	1	0	0	0	0	0	0	0	0	0	0	0	0	0	0
26.000000	4360.512821	4389.743590	4411.282051	3711.282051	4385.128205	4611.794872	4628.717949	4522.564103	4025.641026	4102.051282	4516.923077	4440.512821	4266.153846	3961.538462	1734.000000	1677.000000	41.465000	0.000000	0.000000	0.000000	0.000000	1	1	0	0	0	0	0	0	0	0	0	0	0	0	0	0
27.000000	4361.538462	4390.256410	4408.205128	3709.743590	4384.615385	4610.769231	4627.179487	4523.076923	4024.615385	4096.410256	4518.974359	4442.564103	4267.692308	3963.076923	1734.000000	1677.000000	41.465000	0.000000	0.000000	0.000000	0.000000	1	1	0	0	0	0	0	0	0	0	0	0	0	0	0	0
28.000000	4359.487179	4388.717949	4407.692308	3709.743590	4381.025641	4611.282051	4625.128205	4527.179487	4030.769231	4098.974359	4519.487179	4441.538462	4269.230769	3961.025641	1733.000000	1678.000000	41.481000	0.000000	0.000000	0.000000	0.000000	1	1	0	0	0	0	0	0	0	0	0	0	0	0	0	0
29.000000	4357.948718	4389.230769	4409.743590	3712.820513	4381.538462	4610.256410	4628.717949	4526.153846	4030.769231	4102.564103	4516.410256	4440.512821	4268.717949	3961.538462	1735.000000	1677.000000	41.481000	0.000000	0.000000	0.000000	0.000000	1	1	0	0	0	0	0	0	0	0	0	0	0	0	0	0
30.000000	4358.974359	4389.743590	4407.692308	3713.846154	4383.589744	4609.743590	4631.282051	4521.538462	4026.153846	4101.538462	4513.846154	4440.000000	4267.692308	3961.025641	1733.000000	1678.000000	41.496000	0.000000	0.000000	0.000000	0.000000	1	1	0	0	0	0	0	0	0	0	0	0	0	0	0	0
31.000000	4361.025641	4389.230769	4404.615385	3712.820513	4383.076923	4612.307692	4628.717949	4522.564103	4026.666667	4098.974359	4516.923077	4440.512821	4267.179487	3962.051282	1735.000000	1678.000000	41.496000	0.000000	0.000000	0.000000	0.000000	1	1	0	0	0	0	0	0	0	0	0	0	0	0	0	0
32.000000	4361.538462	4389.230769	4406.666667	3712.820513	4381.025641	4613.846154	4628.205128	4527.179487	4026.666667	4099.487179	4517.435897	4443.076923	4267.692308	3961.025641	1733.000000	1677.000000	41.512000	0.000000	0.000000	0.000000	0.000000	1	1	0	0	0	0	0	0	0	0	0	0	0	0	0	0
33.000000	4361.025641	4390.769231	4408.717949	3713.846154	4381.538462	4611.282051	4629.743590	4526.153846	4024.102564	4101.025641	4516.923077	4443.589744	4266.153846	3963.589744	1734.000000	1678.000000	41.512000	0.000000	0.000000	0.000000	0.000000	1	1	0	0	0	0	0	0	0	0	0	0	0	0	0	0
34.000000	4360.000000	4388.717949	4405.641026	3712.820513	4383.076923	4609.230769	4630.769231	4524.615385	4025.128205	4100.512821	4517.435897	4442.051282	4265.641026	3963.589744	1735.000000	1677.000000	41.528000	0.000000	0.000000	0.000000	0.000000	1	1	0	0	0	0	0	0	0	0	0	0	0	0	0	0
35.000000	4357.948718	4384.615385	4404.615385	3710.256410	4383.076923	4610.769231	4628.717949	4526.153846	4024.102564	4100.512821	4517.948718	4440.512821	4268.717949	3962.564103	1734.000000	1677.000000	41.528000	0.000000	0.000000	0.000000	0.000000	1	1	0	0	0	0	0	0	0	0	0	0	0	0	0	0
36.000000	4358.974359	4387.692308	4408.717949	3711.282051	4382.051282	4610.769231	4625.641026	4526.153846	4026.666667	4103.076923	4517.435897	4439.487179	4268.205128	3962.051282	1734.000000	1677.000000	41.548000	0.000000	0.000000	0.000000	0.000000	1	1	0	0	0	0	0	0	0	0	0	0	0	0	0	0
37.000000	4360.512821	4391.794872	4409.230769	3714.871795	4382.051282	4610.256410	4626.153846	4526.153846	4034.358974	4105.641026	4520.512821	4440.000000	4265.641026	3962.564103	1733.000000	1677.000000	41.548000	0.000000	0.000000	0.000000	0.000000	1	1	0	0	0	0	0	0	0	0	0	0	0	0	0	0
38.000000	4358.974359	4389.743590	4407.692308	3714.358974	4383.076923	4611.282051	4628.717949	4525.128205	4027.692308	4103.589744	4522.564103	4441.025641	4265.641026	3962.564103	1735.000000	1677.000000	41.563000	0.000000	0.000000	0.000000	0.000000	1	1	0	0	0	0	0	0	0	0	0	0	0	0	0	0
39.000000	4360.000000	4387.692308	4408.717949	3710.769231	4385.128205	4612.307692	4629.230769	4524.102564	4019.487179	4099.487179	4518.974359	4440.000000	4267.179487	3964.615385	1734.000000	1677.000000	41.563000	0.000000	0.000000	0.000000	0.000000	1	1	0	0	0	0	0	0	0	0	0	0	0	0	0	0
40.000000	4362.564103	4388.205128	4407.179487	3711.794872	4383.589744	4611.282051	4627.692308	4524.102564	4024.615385	4097.948718	4517.435897	4440.000000	4266.153846	3965.641026	1735.000000	1677.000000	41.579000	0.000000	0.000000	0.000000	0.000000	1	1	0	0	0	0	0	0	0	0	0	0	0	0	0	0
41.000000	4359.487179	4387.692308	4406.666667	3713.333333	4381.538462	4611.794872	4627.179487	4523.076923	4028.205128	4100.000000	4517.435897	4441.538462	4265.128205	3961.025641	1733.000000	1678.000000	41.579000	0.000000	0.000000	0.000000	0.000000	1	1	0	0	0	0	0	0	0	0	0	0	0	0	0	0
42.000000	4357.948718	4387.692308	4411.282051	3713.333333	4381.538462	4612.820513	4628.205128	4523.589744	4025.641026	4104.102564	4518.461538	4441.025641	4267.179487	3960.512821	1735.000000	1677.000000	41.595000	0.000000	0.000000	0.000000	0.000000	1	1	0	0	0	0	0	0	0	0	0	0	0	0	0	0
43.000000	4360.512821	4388.205128	4411.794872	3713.846154	4382.051282	4612.820513	4629.230769	4526.666667	4024.615385	4102.051282	4519.487179	4438.974359	4270.256410	3962.564103	1734.000000	1676.000000	41.595000	0.000000	0.000000	0.000000	0.000000	1	1	0	0	0	0	0	0	0	0	0	0	0	0	0	0
44.000000	4361.025641	4386.666667	4406.666667	3713.846154	4381.025641	4612.307692	4625.641026	4525.128205	4024.615385	4097.948718	4520.000000	4438.461538	4270.769231	3966.666667	1734.000000	1678.000000	41.610000	0.000000	0.000000	0.000000	0.000000	1	1	0	0	0	0	0	0	0	0	0	0	0	0	0	0
45.000000	4360.512821	4386.666667	4406.666667	3714.358974	4381.538462	4612.307692	4625.128205	4523.589744	4026.666667	4096.923077	4517.435897	4440.000000	4267.692308	3964.102564	1735.000000	1676.000000	41.610000	0.000000	0.000000	0.000000	0.000000	1	1	0	0	0	0	0	0	0	0	0	0	0	0	0	0
46.000000	4361.025641	4387.692308	4408.205128	3713.846154	4383.589744	4611.794872	4628.717949	4526.666667	4027.179487	4100.512821	4516.923077	4439.487179	4266.666667	3961.025641	1734.000000	1678.000000	41.626000	0.000000	0.000000	0.000000	0.000000	1	1	0	0	0	0	0	0	0	0	0	0	0	0	0	0
47.000000	4358.461538	4387.692308	4407.692308	3712.820513	4383.076923	4611.794872	4629.230769	4524.615385	4023.076923	4103.589744	4519.487179	4440.000000	4265.128205	3960.000000	1735.000000	1677.000000	41.626000	0.000000	0.000000	0.000000	0.000000	1	1	0	0	0	0	0	0	0	0	0	0	0	0	0	0
48.000000	4357.435897	4389.743590	4407.179487	3713.333333	4382.051282	4611.282051	4628.205128	4521.538462	4022.051282	4103.076923	4521.025641	4441.538462	4265.128205	3964.102564	1734.000000	1677.000000	41.641000	0.000000	0.000000	0.000000	0.000000	1	1	0	0	0	0	0	0	0	0	0	0	0	0	0	0
49.000000	4359.487179	4389.230769	4407.692308	3713.333333	4382.564103	4609.743590	4628.205128	4526.666667	4025.128205	4103.076923	4517.948718	4442.051282	4267.179487	3963.589744	1734.000000	1677.000000	41.641000	0.000000	0.000000	0.000000	0.000000	1	1	0	0	0	0	0	0	0	0	0	0	0	0	0	0
50.000000	4360.000000	4386.666667	4408.205128	3711.794872	4382.051282	4609.743590	4629.230769	4529.743590	4024.102564	4104.102564	4515.897436	4441.025641	4265.128205	3963.589744	1734.000000	1678.000000	41.657000	0.000000	0.000000	0.000000	0.000000	1	1	0	0	0	0	0	0	0	0	0	0	0	0	0	0
51.000000	4359.487179	4387.692308	4408.717949	3712.307692	4381.538462	4609.743590	4630.769231	4524.102564	4022.564103	4104.102564	4517.948718	4443.076923	4264.102564	3964.615385	1735.000000	1678.000000	41.661000	0.000000	0.000000	0.000000	0.000000	1	1	0	0	0	0	0	0	0	0	0	0	0	0	0	0
52.000000	4360.000000	4390.256410	4408.717949	3713.846154	4382.564103	4607.692308	4632.307692	4520.512821	4023.589744	4102.564103	4519.487179	4442.564103	4267.692308	3963.589744	1734.000000	1677.000000	41.661000	0.000000	0.000000	0.000000	0.000000	1	1	0	0	0	0	0	0	0	0	0	0	0	0	0	0
53.000000	4355.897436	4388.717949	4407.179487	3710.256410	4383.076923	4609.743590	4629.743590	4522.564103	4024.615385	4102.564103	4518.461538	4442.051282	4268.717949	3963.076923	1734.000000	1677.000000	41.677000	0.000000	0.000000	0.000000	0.000000	1	1	0	0	0	0	0	0	0	0	0	0	0	0	0	0
54.000000	4354.358974	4385.641026	4407.692308	3709.743590	4382.564103	4612.307692	4627.179487	4522.564103	4025.128205	4103.076923	4517.948718	4445.128205	4267.179487	3966.153846	1734.000000	1678.000000	41.677000	0.000000	0.000000	0.000000	0.000000	1	1	0	0	0	0	0	0	0	0	0	0	0	0	0	0
55.000000	4360.000000	4387.179487	4407.692308	3712.820513	4383.076923	4610.256410	4627.692308	4521.538462	4024.102564	4102.564103	4518.461538	4444.102564	4268.717949	3967.179487	1735.000000	1677.000000	41.693000	0.000000	0.000000	0.000000	0.000000	1	1	0	0	0	0	0	0	0	0	0	0	0	0	0	0
56.000000	4362.051282	4389.743590	4407.179487	3711.794872	4382.564103	4610.256410	4628.717949	4524.102564	4022.051282	4102.564103	4517.948718	4441.538462	4271.282051	3964.102564	1734.000000	1678.000000	41.693000	0.000000	0.000000	0.000000	0.000000	1	1	0	0	0	0	0	0	0	0	0	0	0	0	0	0
57.000000	4358.974359	4389.230769	4410.256410	3711.282051	4382.051282	4612.820513	4627.179487	4524.615385	4022.564103	4102.564103	4520.000000	4443.076923	4268.717949	3965.128205	1734.000000	1677.000000	41.708000	0.000000	0.000000	0.000000	0.000000	1	1	0	0	0	0	0	0	0	0	0	0	0	0	0	0
58.000000	4359.487179	4386.153846	4410.769231	3714.358974	4382.051282	4611.794872	4626.666667	4522.564103	4023.589744	4103.076923	4520.000000	4443.076923	4264.615385	3966.666667	1733.000000	1678.000000	41.708000	0.000000	0.000000	0.000000	0.000000	1	1	0	0	0	0	0	0	0	0	0	0	0	0	0	0
59.000000	4362.051282	4385.128205	4405.128205	3713.846154	4382.051282	4609.743590	4627.179487	4521.538462	4026.666667	4102.564103	4517.435897	4438.461538	4266.666667	3967.179487	1734.000000	1677.000000	41.724000	0.000000	0.000000	0.000000	0.000000	1	1	0	0	0	0	0	0	0	0	0	0	0	0	0	0
60.000000	4360.000000	4388.205128	4404.615385	3712.307692	4382.051282	4610.769231	4628.205128	4521.538462	4031.794872	4103.076923	4516.923077	4441.025641	4267.692308	3965.641026	1734.000000	1677.000000	41.724000	0.000000	0.000000	0.000000	0.000000	1	1	0	0	0	0	0	0	0	0	0	0	0	0	0	0
61.000000	4357.948718	4391.282051	4407.179487	3714.358974	4382.564103	4610.256410	4627.179487	4523.076923	4028.717949	4102.564103	4521.025641	4442.564103	4267.179487	3967.692308	1734.000000	1677.000000	41.740000	0.000000	0.000000	0.000000	0.000000	1	1	0	0	0	0	0	0	0	0	0	0	0	0	0	0
62.000000	4360.000000	4389.743590	4409.230769	3711.282051	4382.564103	4610.769231	4626.666667	4523.076923	4022.051282	4103.076923	4521.538462	4440.512821	4268.205128	3968.205128	1734.000000	1676.000000	41.740000	0.000000	0.000000	0.000000	0.000000	1	1	0	0	0	0	0	0	0	0	0	0	0	0	0	0
63.000000	4360.512821	4387.692308	4409.230769	3710.256410	4382.564103	4610.256410	4626.666667	4521.538462	4021.538462	4102.564103	4520.512821	4438.974359	4268.205128	3970.256410	1734.000000	1678.000000	41.755000	0.000000	0.000000	0.000000	0.000000	1	1	0	0	0	0	0	0	0	0	0	0	0	0	0	0
64.000000	4358.461538	4387.692308	4408.717949	3714.871795	4382.051282	4609.230769	4627.179487	4521.025641	4024.102564	4103.076923	4519.487179	4440.512821	4266.153846	3968.205128	1735.000000	1676.000000	41.755000	0.000000	0.000000	0.000000	0.000000	1	1	0	0	0	0	0	0	0	0	0	0	0	0	0	0
65.000000	4359.487179	4387.179487	4407.692308	3715.897436	4381.538462	4610.256410	4626.666667	4523.076923	4025.128205	4102.564103	4519.487179	4442.051282	4267.179487	3967.692308	1733.000000	1678.000000	41.775000	0.000000	0.000000	0.000000	0.000000	1	1	0	0	0	0	0	0	0	0	0	0	0	0	0	0
66.000000	4361.538462	4385.128205	4408.205128	3713.333333	4382.051282	4611.794872	4627.179487	4524.615385	4023.076923	4103.076923	4518.974359	4443.589744	4268.717949	3967.692308	1735.000000	1677.000000	41.775000	0.000000	0.000000	0.000000	0.000000	1	1	0	0	0	0	0	0	0	0	0	0	0	0	0	0
67.000000	4360.000000	4386.666667	4408.717949	3712.307692	4382.051282	4610.256410	4629.743590	4524.102564	4023.589744	4102.564103	4520.512821	4443.589744	4268.717949	3968.205128	1734.000000	1677.000000	41.791000	0.000000	0.000000	0.000000	0.000000	1	1	0	0	0	0	0	0	0	0	0	0	0	0	0	0
68.000000	4358.461538	4388.717949	4409.230769	3712.820513	4381.538462	4608.205128	4630.769231	4523.076923	4023.589744	4102.564103	4521.025641	4441.538462	4268.717949	3966.153846	1733.000000	1677.000000	41.791000	0.000000	0.000000	0.000000	0.000000	1	1	0	0	0	0	0	0	0	0	0	0	0	0	0	0
69.000000	4360.000000	4387.692308	4410.769231	3713.333333	4381.025641	4611.794872	4628.205128	4523.076923	4025.128205	4103.076923	4520.000000	4442.051282	4268.205128	3965.641026	1734.000000	1678.000000	41.807000	0.000000	0.000000	0.000000	0.000000	1	1	0	0	0	0	0	0	0	0	0	0	0	0	0	0
70.000000	4361.538462	4389.230769	4410.769231	3715.897436	4381.025641	4614.871795	4626.666667	4524.102564	4026.666667	4102.564103	4519.487179	4443.076923	4267.692308	3968.205128	1734.000000	1677.000000	41.807000	0.000000	0.000000	0.000000	0.000000	1	1	0	0	0	0	0	0	0	0	0	0	0	0	0	0
71.000000	4359.487179	4389.230769	4409.230769	3716.410256	4382.051282	4612.820513	4627.692308	4524.102564	4026.666667	4103.076923	4517.435897	4442.564103	4267.179487	3966.666667	1734.000000	1677.000000	41.822000	0.000000	0.000000	0.000000	0.000000	1	1	0	0	0	0	0	0	0	0	0	0	0	0	0	0
72.000000	4360.000000	4386.153846	4407.179487	3714.358974	4382.564103	4611.282051	4627.692308	4522.564103	4025.128205	4102.564103	4517.948718	4440.000000	4267.692308	3965.641026	1734.000000	1677.000000	41.822000	0.000000	0.000000	0.000000	0.000000	1	1	0	0	0	0	0	0	0	0	0	0	0	0	0	0
73.000000	4360.512821	4386.153846	4407.179487	3713.846154	4382.051282	4612.307692	4627.692308	4520.512821	4023.076923	4103.076923	4520.000000	4440.000000	4268.717949	3965.641026	1734.000000	1677.000000	41.838000	0.000000	0.000000	0.000000	0.000000	1	1	0	0	0	0	0	0	0	0	0	0	0	0	0	0
74.000000	4356.923077	4390.256410	4407.692308	3715.384615	4382.564103	4610.769231	4630.256410	4523.076923	4022.564103	4102.564103	4520.000000	4443.589744	4270.256410	3968.717949	1734.000000	1678.000000	41.838000	0.000000	0.000000	0.000000	0.000000	1	1	0	0	0	0	0	0	0	0	0	0	0	0	0	0
75.000000	4354.871795	4389.743590	4407.692308	3713.333333	4382.564103	4610.256410	4630.256410	4528.717949	4024.615385	4103.076923	4518.461538	4447.179487	4268.205128	3967.179487	1734.000000	1677.000000	41.854000	0.000000	0.000000	0.000000	0.000000	1	1	0	0	0	0	0	0	0	0	0	0	0	0	0	0
76.000000	4357.948718	4387.692308	4409.230769	3711.794872	4382.051282	4612.307692	4626.153846	4526.666667	4027.179487	4102.564103	4519.487179	4444.102564	4266.153846	3964.102564	1733.000000	1678.000000	41.854000	0.000000	0.000000	0.000000	0.000000	1	1	0	0	0	0	0	0	0	0	0	0	0	0	0	0
77.000000	4361.025641	4388.717949	4410.256410	3712.820513	4383.076923	4612.307692	4626.153846	4521.538462	4025.128205	4103.076923	4517.948718	4440.000000	4268.717949	3962.564103	1734.000000	1677.000000	41.869000	0.000000	0.000000	0.000000	0.000000	1	1	0	0	0	0	0	0	0	0	0	0	0	0	0	0
78.000000	4361.025641	4390.769231	4407.179487	3711.794872	4383.076923	4611.794872	4629.743590	4522.564103	4024.102564	4102.564103	4517.435897	4442.051282	4270.769231	3965.128205	1733.000000	1677.000000	41.869000	0.000000	0.000000	0.000000	0.000000	1	1	0	0	0	0	0	0	0	0	0	0	0	0	0	0
79.000000	4358.974359	4388.717949	4406.666667	3710.769231	4382.051282	4612.820513	4629.230769	4524.615385	4027.692308	4103.076923	4519.487179	4444.102564	4269.230769	3965.128205	1734.000000	1678.000000	41.885000	0.000000	0.000000	0.000000	0.000000	1	1	0	0	0	0	0	0	0	0	0	0	0	0	0	0
80.000000	4358.974359	4385.641026	4408.717949	3713.846154	4382.564103	4610.769231	4627.179487	4522.051282	4024.615385	4102.564103	4521.538462	4440.512821	4268.205128	3964.615385	1734.000000	1677.000000	41.889000	0.000000	0.000000	0.000000	0.000000	1	1	0	0	0	0	0	0	0	0	0	0	0	0	0	0
81.000000	4360.000000	4384.615385	4411.282051	3714.871795	4383.589744	4610.256410	4629.230769	4521.538462	4018.461538	4103.076923	4519.487179	4439.487179	4268.717949	3962.051282	1734.000000	1677.000000	41.889000	0.000000	0.000000	0.000000	0.000000	1	1	0	0	0	0	0	0	0	0	0	0	0	0	0	0
82.000000	4359.487179	4386.153846	4412.307692	3711.794872	4382.051282	4612.307692	4630.769231	4524.102564	4022.051282	4102.564103	4518.974359	4440.000000	4268.205128	3962.564103	1733.000000	1677.000000	41.905000	0.000000	0.000000	0.000000	0.000000	1	1	0	0	0	0	0	0	0	0	0	0	0	0	0	0
83.000000	4357.948718	4387.179487	4410.256410	3710.256410	4381.538462	4612.307692	4630.256410	4524.102564	4027.692308	4102.564103	4520.512821	4441.025641	4268.205128	3965.128205	1735.000000	1678.000000	41.905000	0.000000	0.000000	0.000000	0.000000	1	1	0	0	0	0	0	0	0	0	0	0	0	0	0	0
84.000000	4358.974359	4386.666667	4409.230769	3713.333333	4382.051282	4610.769231	4629.230769	4523.076923	4026.666667	4103.076923	4520.000000	4442.051282	4268.205128	3966.666667	1734.000000	1677.000000	41.920000	0.000000	0.000000	0.000000	0.000000	1	1	0	0	0	0	0	0	0	0	0	0	0	0	0	0
85.000000	4359.487179	4388.717949	4410.256410	3715.384615	4382.051282	4609.230769	4628.205128	4523.589744	4027.179487	4102.564103	4516.410256	4442.564103	4265.641026	3962.564103	1733.000000	1678.000000	41.920000	0.000000	0.000000	0.000000	0.000000	1	1	0	0	0	0	0	0	0	0	0	0	0	0	0	0
86.000000	4358.974359	4390.256410	4408.205128	3712.820513	4382.051282	4610.256410	4629.743590	4524.102564	4029.230769	4103.076923	4516.410256	4443.076923	4266.666667	3958.461538	1734.000000	1677.000000	41.936000	0.000000	0.000000	0.000000	0.000000	1	1	0	0	0	0	0	0	0	0	0	0	0	0	0	0
87.000000	4359.487179	4389.230769	4406.153846	3709.743590	4382.564103	4611.794872	4631.794872	4522.051282	4026.666667	4102.564103	4517.948718	4442.564103	4269.743590	3958.974359	1734.000000	1678.000000	41.936000	0.000000	0.000000	0.000000	0.000000	1	1	0	0	0	0	0	0	0	0	0	0	0	0	0	0
88.000000	4361.025641	4387.179487	4408.717949	3708.717949	4381.538462	4611.794872	4630.256410	4521.025641	4022.051282	4103.076923	4516.410256	4441.025641	4270.256410	3960.000000	1734.000000	1677.000000	41.952000	0.000000	0.000000	0.000000	0.000000	1	1	0	0	0	0	0	0	0	0	0	0	0	0	0	0
89.000000	4361.538462	4388.717949	4408.205128	3710.769231	4381.025641	4609.230769	4629.743590	4523.589744	4020.000000	4102.564103	4514.871795	4441.025641	4268.205128	3960.512821	1734.000000	1677.000000	41.952000	0.000000	0.000000	0.000000	0.000000	1	1	0	0	0	0	0	0	0	0	0	0	0	0	0	0
90.000000	4359.487179	4389.743590	4406.153846	3712.820513	4384.102564	4608.205128	4630.769231	4523.076923	4021.538462	4103.076923	4514.871795	4442.051282	4267.179487	3958.461538	1734.000000	1678.000000	41.967000	0.000000	0.000000	0.000000	0.000000	1	1	0	0	0	0	0	0	0	0	0	0	0	0	0	0
91.000000	4358.461538	4387.179487	4409.743590	3714.358974	4384.615385	4610.256410	4631.282051	4524.615385	4026.153846	4102.564103	4515.384615	4439.487179	4268.717949	3958.974359	1734.000000	1677.000000	41.967000	0.000000	0.000000	0.000000	0.000000	1	1	0	0	0	0	0	0	0	0	0	0	0	0	0	0
92.000000	4358.461538	4386.153846	4410.256410	3714.358974	4381.538462	4612.307692	4632.307692	4527.692308	4027.692308	4103.076923	4514.358974	4437.948718	4267.179487	3957.435897	1734.000000	1677.000000	41.983000	0.000000	0.000000	0.000000	0.000000	1	1	0	0	0	0	0	0	0	0	0	0	0	0	0	0
93.000000	4358.461538	4388.717949	4406.666667	3713.846154	4381.538462	4612.820513	4632.820513	4528.717949	4025.641026	4102.564103	4513.846154	4440.512821	4264.615385	3956.923077	1734.000000	1677.000000	41.983000	0.000000	0.000000	0.000000	0.000000	1	1	0	0	0	0	0	0	0	0	0	0	0	0	0	0
94.000000	4356.410256	4391.794872	4407.692308	3712.307692	4383.076923	4612.307692	4634.358974	4527.179487	4029.743590	4103.076923	4513.846154	4440.000000	4266.153846	3954.871795	1734.000000	1678.000000	42.003000	0.000000	0.000000	0.000000	0.000000	1	1	0	0	0	0	0	0	0	0	0	0	0	0	0	0
95.000000	4356.923077	4391.794872	4409.230769	3712.820513	4382.051282	4610.769231	4635.384615	4525.128205	4032.307692	4102.564103	4513.846154	4436.923077	4269.230769	3955.384615	1734.000000	1677.000000	42.003000	0.000000	0.000000	0.000000	0.000000	1	1	0	0	0	0	0	0	0	0	0	0	0	0	0	0
96.000000	4358.974359	4389.230769	4407.692308	3712.820513	4382.051282	4610.769231	4633.846154	4524.615385	4027.179487	4103.076923	4511.794872	4438.974359	4268.205128	3955.384615	1734.000000	1678.000000	42.019000	0.000000	0.000000	0.000000	0.000000	1	1	0	0	0	0	0	0	0	0	0	0	0	0	0	0
97.000000	4360.512821	4388.205128	4407.179487	3711.794872	4382.564103	4611.282051	4633.333333	4526.153846	4023.076923	4102.564103	4511.282051	4438.974359	4267.179487	3955.384615	1735.000000	1677.000000	42.019000	0.000000	0.000000	0.000000	0.000000	1	1	0	0	0	0	0	0	0	0	0	0	0	0	0	0
98.000000	4357.948718	4387.692308	4408.205128	3711.282051	4384.102564	4611.282051	4633.846154	4528.205128	4025.641026	4102.564103	4510.769231	4437.948718	4267.179487	3951.282051	1733.000000	1678.000000	42.034000	0.000000	0.000000	0.000000	0.000000	1	1	0	0	0	0	0	0	0	0	0	0	0	0	0	0
99.000000	4356.410256	4388.717949	4408.205128	3712.307692	4385.641026	4612.307692	4632.307692	4526.153846	4027.692308	4103.076923	4512.307692	4438.974359	4264.615385	3950.256410	1735.000000	1677.000000	42.034000	0.000000	0.000000	0.000000	0.000000	1	1	0	0	0	0	0	0	0	0	0	0	0	0	0	0
100.000000	4357.435897	4389.230769	4408.205128	3712.307692	4384.102564	4612.820513	4632.307692	4526.666667	4026.153846	4103.076923	4514.358974	4440.512821	4264.102564	3952.820513	1733.000000	1677.000000	42.050000	0.000000	0.000000	0.000000	0.000000	1	1	0	0	0	0	0	0	0	0	0	0	0	0	0	0
101.000000	4357.948718	4388.717949	4408.205128	3712.307692	4381.025641	4611.794872	4634.871795	4526.153846	4027.179487	4102.564103	4514.871795	4437.948718	4266.666667	3954.358974	1734.000000	1678.000000	42.050000	0.000000	0.000000	0.000000	0.000000	1	1	0	0	0	0	0	0	0	0	0	0	0	0	0	0
102.000000	4356.923077	4389.743590	4408.717949	3711.794872	4381.538462	4612.820513	4634.358974	4526.153846	4027.179487	4102.564103	4513.333333	4436.410256	4267.179487	3952.307692	1734.000000	1677.000000	42.065000	0.000000	0.000000	0.000000	0.000000	1	1	0	0	0	0	0	0	0	0	0	0	0	0	0	0
103.000000	4358.461538	4391.282051	4408.717949	3711.282051	4383.589744	4614.871795	4632.307692	4528.717949	4023.076923	4103.589744	4513.846154	4438.974359	4265.128205	3950.769231	1734.000000	1678.000000	42.065000	0.000000	0.000000	0.000000	0.000000	1	1	0	0	0	0	0	0	0	0	0	0	0	0	0	0
104.000000	4359.487179	4388.205128	4406.666667	3713.846154	4383.076923	4612.820513	4631.794872	4529.230769	4026.666667	4100.512821	4513.333333	4440.000000	4264.615385	3952.307692	1734.000000	1677.000000	42.081000	0.000000	0.000000	0.000000	0.000000	1	1	0	0	0	0	0	0	0	0	0	0	0	0	0	0
105.000000	4356.923077	4385.128205	4407.179487	3713.846154	4382.051282	4611.282051	4634.358974	4527.692308	4032.307692	4098.461538	4511.794872	4438.461538	4267.179487	3951.794872	1734.000000	1677.000000	42.081000	0.000000	0.000000	0.000000	0.000000	1	1	0	0	0	0	0	0	0	0	0	0	0	0	0	0
106.000000	4356.410256	4388.205128	4409.743590	3712.307692	4382.564103	4612.307692	4632.820513	4527.179487	4030.256410	4102.051282	4513.846154	4438.974359	4267.692308	3950.769231	1734.000000	1677.000000	42.097000	0.000000	0.000000	0.000000	0.000000	1	1	0	0	0	0	0	0	0	0	0	0	0	0	0	0
107.000000	4356.410256	4388.717949	4409.230769	3713.846154	4382.051282	4611.794872	4630.769231	4527.179487	4029.230769	4105.641026	4512.307692	4440.512821	4264.615385	3949.230769	1734.000000	1678.000000	42.097000	0.000000	0.000000	0.000000	0.000000	1	1	0	0	0	0	0	0	0	0	0	0	0	0	0	0
108.000000	4355.384615	4387.692308	4407.692308	3714.358974	4383.076923	4609.743590	4632.307692	4526.666667	4031.282051	4102.051282	4511.282051	4437.948718	4266.153846	3952.307692	1734.000000	1677.000000	42.113000	0.000000	0.000000	0.000000	0.000000	1	1	0	0	0	0	0	0	0	0	0	0	0	0	0	0
109.000000	4355.897436	4389.743590	4408.717949	3710.769231	4382.564103	4611.282051	4631.282051	4527.179487	4025.128205	4099.487179	4510.769231	4439.487179	4269.230769	3953.333333	1734.000000	1678.000000	42.117000	0.000000	0.000000	0.000000	0.000000	1	1	0	0	0	0	0	0	0	0	0	0	0	0	0	0
110.000000	4358.461538	4389.743590	4407.692308	3710.256410	4383.076923	4614.871795	4630.256410	4527.692308	4023.589744	4101.538462	4510.256410	4441.538462	4268.717949	3953.333333	1734.000000	1677.000000	42.117000	0.000000	0.000000	0.000000	0.000000	1	1	0	0	0	0	0	0	0	0	0	0	0	0	0	0
111.000000	4358.461538	4388.205128	4407.692308	3710.769231	4384.102564	4614.358974	4634.358974	4527.179487	4029.230769	4101.025641	4510.256410	4438.974359	4267.179487	3950.256410	1734.000000	1677.000000	42.132000	0.000000	0.000000	0.000000	0.000000	1	1	0	0	0	0	0	0	0	0	0	0	0	0	0	0
112.000000	4357.948718	4390.256410	4410.256410	3709.743590	4383.589744	4611.794872	4635.384615	4525.641026	4029.230769	4097.435897	4512.820513	4436.410256	4266.666667	3952.820513	1734.000000	1677.000000	42.132000	0.000000	0.000000	0.000000	0.000000	1	1	0	0	0	0	0	0	0	0	0	0	0	0	0	0
113.000000	4357.948718	4389.230769	4409.743590	3709.743590	4383.076923	4611.282051	4632.820513	4525.641026	4029.230769	4098.974359	4512.820513	4438.974359	4266.153846	3954.358974	1734.000000	1677.000000	42.148000	0.000000	0.000000	0.000000	0.000000	1	1	0	0	0	0	0	0	0	0	0	0	0	0	0	0
114.000000	4358.461538	4387.692308	4407.179487	3710.769231	4383.589744	4613.846154	4633.333333	4526.666667	4031.282051	4101.025641	4512.820513	4440.512821	4266.666667	3953.846154	1734.000000	1677.000000	42.148000	0.000000	0.000000	0.000000	0.000000	1	1	0	0	0	0	0	0	0	0	0	0	0	0	0	0
115.000000	4359.487179	4390.769231	4407.692308	3711.282051	4385.128205	4615.384615	4635.897436	4527.179487	4029.230769	4097.948718	4515.384615	4441.025641	4266.153846	3954.358974	1734.000000	1678.000000	42.164000	0.000000	0.000000	0.000000	0.000000	1	1	0	0	0	0	0	0	0	0	0	0	0	0	0	0
116.000000	4358.974359	4392.307692	4408.205128	3713.846154	4384.102564	4612.820513	4635.897436	4527.692308	4027.692308	4101.025641	4516.923077	4438.974359	4266.666667	3955.897436	1735.000000	1677.000000	42.164000	0.000000	0.000000	0.000000	0.000000	1	1	0	0	0	0	0	0	0	0	0	0	0	0	0	0
117.000000	4358.461538	4389.230769	4408.717949	3713.333333	4382.051282	4609.743590	4631.282051	4525.128205	4027.179487	4105.641026	4516.923077	4437.948718	4269.230769	3953.333333	1733.000000	1677.000000	42.179000	0.000000	0.000000	0.000000	0.000000	1	1	0	0	0	0	0	0	0	0	0	0	0	0	0	0
118.000000	4358.461538	4390.256410	4407.179487	3710.256410	4382.051282	4610.769231	4626.666667	4523.076923	4026.666667	4101.538462	4516.923077	4440.512821	4270.256410	3953.333333	1735.000000	1677.000000	42.179000	0.000000	0.000000	0.000000	0.000000	1	1	0	0	0	0	0	0	0	0	0	0	0	0	0	0
119.000000	4357.435897	4392.307692	4406.666667	3712.307692	4383.076923	4612.307692	4631.282051	4524.615385	4026.153846	4100.512821	4515.897436	4441.025641	4268.205128	3957.435897	1734.000000	1677.000000	42.195000	0.000000	0.000000	0.000000	0.000000	1	1	0	0	0	0	0	0	0	0	0	0	0	0	0	0
120.000000	4357.435897	4390.769231	4409.230769	3715.384615	4382.564103	4611.794872	4633.846154	4526.666667	4025.641026	4105.128205	4514.358974	4438.461538	4266.666667	3955.384615	1734.000000	1678.000000	42.195000	0.000000	0.000000	0.000000	0.000000	1	1	0	0	0	0	0	0	0	0	0	0	0	0	0	0
121.000000	4360.512821	4388.205128	4408.205128	3713.846154	4381.538462	4611.282051	4627.692308	4526.153846	4025.128205	4102.564103	4512.307692	4437.948718	4267.692308	3953.333333	1734.000000	1677.000000	42.210000	0.000000	0.000000	0.000000	0.000000	1	1	0	0	0	0	0	0	0	0	0	0	0	0	0	0
122.000000	4359.487179	4387.692308	4404.615385	3712.820513	4383.076923	4611.282051	4626.666667	4526.153846	4025.641026	4097.948718	4512.820513	4439.487179	4268.205128	3955.384615	1733.000000	1677.000000	42.210000	0.000000	0.000000	0.000000	0.000000	1	1	0	0	0	0	0	0	0	0	0	0	0	0	0	0
123.000000	4356.923077	4389.230769	4406.666667	3712.820513	4384.102564	4612.307692	4632.307692	4527.179487	4025.128205	4102.051282	4516.923077	4438.461538	4268.717949	3957.948718	1734.000000	1678.000000	42.226000	0.000000	0.000000	0.000000	0.000000	1	1	0	0	0	0	0	0	0	0	0	0	0	0	0	0
124.000000	4357.435897	4390.769231	4411.794872	3712.307692	4384.615385	4611.794872	4634.871795	4527.692308	4025.641026	4105.641026	4516.410256	4437.435897	4267.692308	3955.384615	1734.000000	1677.000000	42.230000	0.000000	0.000000	0.000000	0.000000	1	1	0	0	0	0	0	0	0	0	0	0	0	0	0	0
125.000000	4358.974359	4390.256410	4410.256410	3713.333333	4384.102564	4609.230769	4631.794872	4527.179487	4028.205128	4103.076923	4513.846154	4437.948718	4265.641026	3956.923077	1734.000000	1677.000000	42.230000	0.000000	0.000000	0.000000	0.000000	1	1	0	0	0	0	0	0	0	0	0	0	0	0	0	0
126.000000	4358.461538	4389.230769	4407.692308	3712.820513	4382.051282	4609.743590	4631.282051	4526.666667	4025.641026	4103.589744	4512.820513	4439.487179	4266.153846	3957.948718	1733.000000	1678.000000	42.246000	0.000000	0.000000	0.000000	0.000000	1	1	0	0	0	0	0	0	0	0	0	0	0	0	0	0
127.000000	4358.461538	4389.743590	4409.230769	3712.820513	4382.051282	4612.307692	4632.820513	4525.128205	4023.589744	4105.128205	4515.897436	4440.512821	4266.666667	3961.025641	1734.000000	1677.000000	42.262000	0.000000	0.000000	0.000000	0.000000	1	1	0	0	0	0	0	0	0	0	0	0	0	0	0	0
128.000000	4358.974359	4388.205128	4411.282051	3714.871795	4382.564103	4612.307692	4631.282051	4525.128205	4023.589744	4102.051282	4518.461538	4441.538462	4267.179487	3957.948718	1733.000000	1677.000000	42.262000	0.000000	0.000000	0.000000	0.000000	1	1	0	0	0	0	0	0	0	0	0	0	0	0	0	0
0.000000	4360.000000	4386.666667	4408.205128	3714.358974	4381.025641	4612.307692	4627.692308	4524.615385	4024.102564	4097.435897	4517.948718	4438.974359	4268.205128	3954.358974	1735.000000	1677.000000	42.262000	0.000000	0.000000	0.000000	0.000000	1	1	0	0	0	0	0	0	0	0	0	0	0	0	0	0
1.000000	4359.487179	4387.179487	4405.128205	3711.794872	4381.025641	4612.820513	4628.205128	4525.128205	4029.230769	4098.461538	4515.384615	4437.948718	4268.717949	3954.871795	1734.000000	1677.000000	42.277000	0.000000	0.000000	0.000000	0.000000	1	1	0	0	0	0	0	0	0	0	0	0	0	0	0	0
2.000000	4358.974359	4387.692308	4404.615385	3712.307692	4382.564103	4612.307692	4628.717949	4525.128205	4031.794872	4102.051282	4515.897436	4438.974359	4269.230769	3958.974359	1734.000000	1678.000000	42.293000	0.000000	0.000000	0.000000	0.000000	1	1	0	0	0	0	0	0	0	0	0	0	0	0	0	0
3.000000	4358.974359	4389.230769	4408.205128	3712.820513	4382.051282	4611.794872	4628.205128	4522.564103	4029.743590	4101.538462	4516.410256	4437.948718	4269.230769	3958.974359	1734.000000	1676.000000	42.293000	0.000000	0.000000	0.000000	0.000000	1	1	0	0	0	0	0	0	0	0	0	0	0	0	0	0
4.000000	4359.487179	4391.794872	4408.717949	3713.333333	4381.538462	4612.820513	4631.282051	4522.051282	4028.205128	4100.512821	4516.410256	4439.487179	4267.692308	3958.461538	1733.000000	1678.000000	42.309000	0.000000	0.000000	0.000000	0.000000	1	1	0	0	0	0	0	0	0	0	0	0	0	0	0	0
5.000000	4360.000000	4389.230769	4406.666667	3712.820513	4381.025641	4611.794872	4632.307692	4523.589744	4029.230769	4100.512821	4515.384615	4443.589744	4267.692308	3960.000000	1734.000000	1677.000000	42.309000	0.000000	0.000000	0.000000	0.000000	1	1	0	0	0	0	0	0	0	0	0	0	0	0	0	0
6.000000	4360.000000	4385.641026	4406.153846	3713.333333	4382.051282	4610.256410	4629.743590	4524.102564	4028.717949	4101.025641	4514.358974	4442.051282	4269.743590	3958.974359	1734.000000	1677.000000	42.309000	0.000000	0.000000	0.000000	0.000000	1	1	0	0	0	0	0	0	0	0	0	0	0	0	0	0
7.000000	4358.974359	4387.692308	4407.692308	3712.820513	4382.564103	4610.769231	4629.743590	4522.051282	4028.205128	4101.025641	4514.358974	4437.948718	4268.205128	3956.923077	1734.000000	1677.000000	42.324000	0.000000	0.000000	0.000000	0.000000	1	1	0	0	0	0	0	0	0	0	0	0	0	0	0	0
8.000000	4357.948718	4390.256410	4409.230769	3712.820513	4382.051282	4611.282051	4632.820513	4521.538462	4024.615385	4101.025641	4515.384615	4440.512821	4266.666667	3956.410256	1734.000000	1677.000000	42.340000	0.000000	0.000000	0.000000	0.000000	1	1	0	0	0	0	0	0	0	0	0	0	0	0	0	0
9.000000	4358.461538	4388.717949	4409.743590	3713.846154	4382.051282	4609.230769	4632.820513	4526.666667	4018.974359	4103.076923	4516.410256	4442.051282	4268.205128	3960.512821	1735.000000	1677.000000	42.345000	0.000000	0.000000	0.000000	0.000000	1	1	0	0	0	0	0	0	0	0	0	0	0	0	0	0
10.000000	4358.974359	4386.666667	4411.282051	3712.820513	4382.051282	4609.230769	4629.230769	4527.179487	4021.538462	4104.102564	4517.435897	4442.051282	4266.666667	3961.025641	1733.000000	1678.000000	42.345000	0.000000	0.000000	0.000000	0.000000	1	1	0	0	0	0	0	0	0	0	0	0	0	0	0	0
11.000000	4358.461538	4387.692308	4408.205128	3712.820513	4381.538462	4611.794872	4627.179487	4525.128205	4025.641026	4103.076923	4518.461538	4442.051282	4267.179487	3961.538462	1735.000000	1678.000000	42.361000	0.000000	0.000000	0.000000	0.000000	1	1	0	0	0	0	0	0	0	0	0	0	0	0	0	0
12.000000	4357.435897	4387.692308	4404.615385	3714.358974	4382.051282	4611.794872	4628.717949	4524.615385	4024.102564	4106.153846	4517.435897	4442.051282	4269.230769	3961.538462	1734.000000	1677.000000	42.361000	0.000000	0.000000	0.000000	0.000000	1	1	0	0	0	0	0	0	0	0	0	0	0	0	0	0
13.000000	4359.487179	4388.205128	4406.153846	3715.897436	4383.076923	4610.256410	4628.205128	4527.179487	4022.051282	4106.153846	4516.923077	4440.512821	4267.692308	3963.076923	1734.000000	1678.000000	42.376000	0.000000	0.000000	0.000000	0.000000	1	1	0	0	0	0	0	0	0	0	0	0	0	0	0	0
14.000000	4361.025641	4389.230769	4408.717949	3712.820513	4382.051282	4610.769231	4627.692308	4526.153846	4024.615385	4098.974359	4517.948718	4441.025641	4266.153846	3961.538462	1734.000000	1677.000000	42.376000	0.000000	0.000000	0.000000	0.000000	1	1	0	0	0	0	0	0	0	0	0	0	0	0	0	0
15.000000	4359.487179	4390.256410	4407.179487	3710.256410	4381.025641	4610.256410	4626.666667	4523.076923	4027.692308	4099.487179	4518.461538	4440.000000	4268.205128	3961.538462	1733.000000	1678.000000	42.392000	0.000000	0.000000	0.000000	0.000000	1	1	0	0	0	0	0	0	0	0	0	0	0	0	0	0
16.000000	4358.461538	4388.717949	4406.666667	3710.769231	4382.564103	4609.743590	4626.153846	4524.615385	4025.128205	4105.128205	4515.897436	4438.461538	4269.743590	3961.538462	1734.000000	1677.000000	42.392000	0.000000	0.000000	0.000000	0.000000	1	1	0	0	0	0	0	0	0	0	0	0	0	0	0	0
17.000000	4360.000000	4387.179487	4409.230769	3713.846154	4382.051282	4611.282051	4627.692308	4525.641026	4025.128205	4104.102564	4515.897436	4439.487179	4266.666667	3963.076923	1734.000000	1678.000000	42.407000	0.000000	0.000000	0.000000	0.000000	1	1	0	0	0	0	0	0	0	0	0	0	0	0	0	0
18.000000	4358.974359	4387.179487	4410.256410	3715.897436	4380.512821	4611.282051	4629.230769	4523.076923	4027.179487	4102.564103	4519.487179	4443.589744	4264.102564	3962.051282	1734.000000	1677.000000	42.407000	0.000000	0.000000	0.000000	0.000000	1	1	0	0	0	0	0	0	0	0	0	0	0	0	0	0
19.000000	4357.435897	4388.717949	4407.692308	3714.358974	4382.051282	4608.205128	4628.205128	4523.589744	4028.205128	4103.076923	4521.025641	4445.128205	4267.179487	3963.589744	1734.000000	1677.000000	42.423000	0.000000	0.000000	0.000000	0.000000	1	1	0	0	0	0	0	0	0	0	0	0	0	0	0	0
20.000000	4358.974359	4389.230769	4406.666667	3714.358974	4382.564103	4608.717949	4628.205128	4525.128205	4024.102564	4104.615385	4518.974359	4441.538462	4272.307692	3964.102564	1734.000000	1677.000000	42.423000	0.000000	0.000000	0.000000	0.000000	1	1	0	0	0	0	0	0	0	0	0	0	0	0	0	0
21.000000	4358.974359	4389.230769	4407.692308	3713.333333	4381.538462	4611.282051	4628.717949	4524.102564	4021.538462	4105.128205	4519.487179	4440.512821	4271.282051	3962.051282	1734.000000	1678.000000	42.439000	0.000000	0.000000	0.000000	0.000000	1	1	0	0	0	0	0	0	0	0	0	0	0	0	0	0
22.000000	4358.974359	4387.692308	4408.717949	3712.307692	4383.076923	4610.769231	4629.230769	4521.538462	4024.102564	4102.564103	4520.512821	4442.564103	4266.666667	3961.538462	1734.000000	1678.000000	42.439000	0.000000	0.000000	0.000000	0.000000	1	1	0	0	0	0	0	0	0	0	0	0	0	0	0	0
23.000000	4361.025641	4385.641026	4408.205128	3714.358974	4385.128205	4610.256410	4628.205128	4524.102564	4025.641026	4100.512821	4517.435897	4443.589744	4267.692308	3963.076923	1734.000000	1677.000000	42.455000	0.000000	0.000000	0.000000	0.000000	1	1	0	0	0	0	0	0	0	0	0	0	0	0	0	0
24.000000	4362.051282	4386.666667	4406.666667	3715.897436	4383.589744	4613.333333	4626.666667	4524.615385	4022.564103	4101.025641	4515.897436	4442.564103	4270.769231	3963.076923	1734.000000	1678.000000	42.459000	0.000000	0.000000	0.000000	0.000000	1	1	0	0	0	0	0	0	0	0	0	0	0	0	0	0
25.000000	4360.000000	4389.743590	4407.179487	3713.333333	4382.051282	4613.846154	4627.692308	4522.564103	4022.564103	4100.512821	4517.435897	4441.538462	4267.692308	3961.025641	1734.000000	1677.000000	42.459000	0.000000	0.000000	0.000000	0.000000	1	1	0	0	0	0	0	0	0	0	0	0	0	0	0	0
26.000000	4360.000000	4389.743590	4409.230769	3711.282051	4382.051282	4610.769231	4629.230769	4524.102564	4026.666667	4099.487179	4521.025641	4440.512821	4265.128205	3964.102564	1734.000000	1678.000000	42.475000	0.000000	0.000000	0.000000	0.000000	1	1	0	0	0	0	0	0	0	0	0	0	0	0	0	0
27.000000	4361.025641	4387.179487	4409.230769	3712.820513	4381.538462	4610.256410	4627.692308	4525.641026	4026.153846	4098.461538	4517.948718	4442.051282	4266.153846	3963.076923	1735.000000	1677.000000	42.475000	0.000000	0.000000	0.000000	0.000000	1	1	0	0	0	0	0	0	0	0	0	0	0	0	0	0
28.000000	4360.000000	4386.666667	4407.179487	3714.358974	4381.538462	4612.820513	4627.692308	4525.128205	4024.102564	4097.948718	4517.435897	4443.589744	4267.692308	3961.538462	1733.000000	1677.000000	42.490000	0.000000	0.000000	0.000000	0.000000	1	1	0	0	0	0	0	0	0	0	0	0	0	0	0	0
29.000000	4359.487179	4389.230769	4407.692308	3712.307692	4383.076923	4613.333333	4629.743590	4524.615385	4024.102564	4098.461538	4518.974359	4443.589744	4268.717949	3961.025641	1734.000000	1678.000000	42.490000	0.000000	0.000000	0.000000	0.000000	1	1	0	0	0	0	0	0	0	0	0	0	0	0	0	0
30.000000	4358.974359	4390.256410	4409.230769	3711.282051	4382.051282	4609.230769	4628.717949	4525.128205	4024.102564	4101.538462	4518.974359	4441.538462	4267.179487	3964.102564	1734.000000	1677.000000	42.506000	0.000000	0.000000	0.000000	0.000000	1	1	0	0	0	0	0	0	0	0	0	0	0	0	0	0
31.000000	4357.435897	4387.179487	4408.717949	3712.307692	4380.512821	4607.179487	4627.179487	4526.153846	4022.564103	4103.076923	4516.923077	4441.025641	4265.641026	3962.564103	1734.000000	1678.000000	42.506000	0.000000	0.000000	0.000000	0.000000	1	1	0	0	0	0	0	0	0	0	0	0	0	0	0	0
32.000000	4358.974359	4387.179487	4407.179487	3714.358974	4382.051282	4610.256410	4628.205128	4525.641026	4023.076923	4103.589744	4518.461538	4440.000000	4267.179487	3963.589744	1733.000000	1677.000000	42.521000	0.000000	0.000000	0.000000	0.000000	1	1	0	0	0	0	0	0	0	0	0	0	0	0	0	0
33.000000	4360.000000	4389.743590	4406.666667	3713.333333	4382.564103	4612.820513	4628.205128	4524.102564	4024.615385	4103.589744	4517.435897	4442.051282	4269.230769	3965.128205	1734.000000	1678.000000	42.521000	0.000000	0.000000	0.000000	0.000000	1	1	0	0	0	0	0	0	0	0	0	0	0	0	0	0
34.000000	4358.461538	4390.769231	4407.692308	3713.846154	4382.051282	4611.282051	4625.641026	4523.076923	4025.128205	4104.102564	4516.410256	4443.076923	4268.717949	3964.102564	1734.000000	1677.000000	42.537000	0.000000	0.000000	0.000000	0.000000	1	1	0	0	0	0	0	0	0	0	0	0	0	0	0	0
35.000000	4357.435897	4387.179487	4409.230769	3714.358974	4383.589744	4610.256410	4625.641026	4523.076923	4026.666667	4104.102564	4520.000000	4442.051282	4269.230769	3962.564103	1735.000000	1677.000000	42.537000	0.000000	0.000000	0.000000	0.000000	1	1	0	0	0	0	0	0	0	0	0	0	0	0	0	0
36.000000	4358.461538	4385.128205	4409.230769	3711.794872	4383.076923	4611.282051	4627.179487	4522.564103	4023.589744	4103.589744	4521.025641	4441.538462	4269.230769	3965.641026	1734.000000	1677.000000	42.553000	0.000000	0.000000	0.000000	0.000000	1	1	0	0	0	0	0	0	0	0	0	0	0	0	0	0
37.000000	4360.512821	4387.179487	4409.743590	3712.307692	4382.564103	4610.256410	4628.717949	4522.564103	4025.128205	4103.589744	4517.435897	4441.538462	4269.230769	3965.641026	1734.000000	1678.000000	42.553000	0.000000	0.000000	0.000000	0.000000	1	1	0	0	0	0	0	0	0	0	0	0	0	0	0	0
38.000000	4358.974359	4389.743590	4411.282051	3714.358974	4383.589744	4609.230769	4630.256410	4522.564103	4031.282051	4103.589744	4516.923077	4441.025641	4269.230769	3962.564103	1734.000000	1677.000000	42.573000	0.000000	0.000000	0.000000	0.000000	1	1	0	0	0	0	0	0	0	0	0	0	0	0	0	0
39.000000	4357.948718	4387.692308	4410.769231	3713.333333	4384.102564	4610.769231	4627.692308	4523.589744	4027.692308	4103.589744	4518.974359	4440.512821	4267.179487	3963.589744	1734.000000	1677.000000	42.573000	0.000000	0.000000	0.000000	0.000000	1	1	0	0	0	0	0	0	0	0	0	0	0	0	0	0
40.000000	4359.487179	4384.615385	4409.230769	3712.307692	4382.564103	4612.307692	4626.153846	4526.153846	4021.025641	4104.102564	4517.948718	4441.025641	4266.153846	3964.615385	1733.000000	1677.000000	42.588000	0.000000	0.000000	0.000000	0.000000	1	1	0	0	0	0	0	0	0	0	0	0	0	0	0	0
41.000000	4361.025641	4386.666667	4406.666667	3714.358974	4383.076923	4610.769231	4629.230769	4523.589744	4024.102564	4103.589744	4518.461538	4441.538462	4268.205128	3964.615385	1734.000000	1678.000000	42.588000	0.000000	0.000000	0.000000	0.000000	1	1	0	0	0	0	0	0	0	0	0	0	0	0	0	0
42.000000	4360.512821	4388.717949	4406.666667	3713.846154	4384.615385	4610.256410	4629.743590	4522.051282	4024.615385	4103.589744	4520.000000	4442.564103	4268.205128	3964.615385	1734.000000	1677.000000	42.604000	0.000000	0.000000	0.000000	0.000000	1	1	0	0	0	0	0	0	0	0	0	0	0	0	0	0
43.000000	4360.512821	4387.179487	4406.666667	3711.794872	4384.615385	4611.282051	4625.641026	4524.615385	4022.051282	4104.102564	4522.051282	4441.538462	4267.692308	3966.666667	1734.000000	1679.000000	42.604000	0.000000	0.000000	0.000000	0.000000	1	1	0	0	0	0	0	0	0	0	0	0	0	0	0	0
44.000000	4361.538462	4385.641026	4405.641026	3711.794872	4382.564103	4612.307692	4627.692308	4524.615385	4030.256410	4102.051282	4522.051282	4439.487179	4268.717949	3964.102564	1734.000000	1676.000000	42.620000	0.000000	0.000000	0.000000	0.000000	1	1	0	0	0	0	0	0	0	0	0	0	0	0	0	0
45.000000	4362.051282	4386.153846	4405.128205	3711.794872	4381.025641	4612.307692	4630.256410	4522.564103	4031.282051	4097.435897	4520.512821	4442.051282	4267.179487	3964.102564	1733.000000	1677.000000	42.620000	0.000000	0.000000	0.000000	0.000000	1	1	0	0	0	0	0	0	0	0	0	0	0	0	0	0
46.000000	4358.974359	4387.179487	4406.153846	3712.820513	4382.564103	4610.769231	4628.205128	4523.589744	4023.589744	4098.461538	4518.461538	4445.641026	4265.128205	3964.615385	1735.000000	1677.000000	42.635000	0.000000	0.000000	0.000000	0.000000	1	1	0	0	0	0	0	0	0	0	0	0	0	0	0	0
47.000000	4356.923077	4388.717949	4407.692308	3713.333333	4383.076923	4610.256410	4629.743590	4524.102564	4025.641026	4101.025641	4521.025641	4441.538462	4267.692308	3965.641026	1734.000000	1678.000000	42.635000	0.000000	0.000000	0.000000	0.000000	1	1	0	0	0	0	0	0	0	0	0	0	0	0	0	0
48.000000	4357.435897	4386.153846	4408.717949	3711.282051	4382.051282	4612.820513	4631.282051	4522.564103	4026.153846	4100.512821	4521.538462	4439.487179	4268.205128	3964.102564	1734.000000	1677.000000	42.651000	0.000000	0.000000	0.000000	0.000000	1	1	0	0	0	0	0	0	0	0	0	0	0	0	0	0
49.000000	4357.948718	4385.641026	4407.692308	3711.794872	4383.589744	4612.820513	4628.717949	4523.589744	4020.512821	4101.538462	4520.512821	4442.051282	4267.692308	3964.615385	1734.000000	1677.000000	42.651000	0.000000	0.000000	0.000000	0.000000	1	1	0	0	0	0	0	0	0	0	0	0	0	0	0	0
50.000000	4357.948718	4389.230769	4407.692308	3712.820513	4383.589744	4610.256410	4629.230769	4524.615385	4022.051282	4102.564103	4519.487179	4443.076923	4267.692308	3964.615385	1734.000000	1678.000000	42.667000	0.000000	0.000000	0.000000	0.000000	1	1	0	0	0	0	0	0	0	0	0	0	0	0	0	0
51.000000	4360.000000	4389.743590	4407.692308	3714.358974	4381.025641	4610.256410	4630.769231	4523.589744	4024.615385	4101.538462	4520.512821	4443.076923	4268.717949	3966.153846	1733.000000	1677.000000	42.667000	0.000000	0.000000	0.000000	0.000000	1	1	0	0	0	0	0	0	0	0	0	0	0	0	0	0
52.000000	4360.000000	4388.205128	4408.205128	3714.358974	4381.538462	4611.794872	4627.692308	4522.564103	4018.974359	4103.076923	4519.487179	4444.615385	4269.230769	3963.076923	1734.000000	1678.000000	42.682000	0.000000	0.000000	0.000000	0.000000	1	1	0	0	0	0	0	0	0	0	0	0	0	0	0	0
53.000000	4358.974359	4388.205128	4408.717949	3711.282051	4382.051282	4611.282051	4627.692308	4523.076923	4020.000000	4105.128205	4518.974359	4443.076923	4270.256410	3962.564103	1733.000000	1677.000000	42.687000	0.000000	0.000000	0.000000	0.000000	1	1	0	0	0	0	0	0	0	0	0	0	0	0	0	0
54.000000	4360.000000	4387.692308	4408.205128	3710.256410	4382.051282	4611.282051	4630.769231	4523.589744	4027.179487	4102.051282	4520.512821	4438.974359	4269.230769	3965.641026	1734.000000	1678.000000	42.687000	0.000000	0.000000	0.000000	0.000000	1	1	0	0	0	0	0	0	0	0	0	0	0	0	0	0
55.000000	4359.487179	4386.666667	4409.743590	3710.769231	4383.589744	4612.820513	4630.256410	4523.076923	4027.179487	4098.461538	4520.512821	4439.487179	4268.205128	3965.641026	1735.000000	1677.000000	42.702000	0.000000	0.000000	0.000000	0.000000	1	1	0	0	0	0	0	0	0	0	0	0	0	0	0	0
56.000000	4358.461538	4388.205128	4409.230769	3711.794872	4384.615385	4612.307692	4627.692308	4525.641026	4022.564103	4097.435897	4520.512821	4442.051282	4268.205128	3964.102564	1733.000000	1678.000000	42.702000	0.000000	0.000000	0.000000	0.000000	1	1	0	0	0	0	0	0	0	0	0	0	0	0	0	0
57.000000	4358.974359	4388.205128	4406.153846	3712.820513	4383.589744	4610.769231	4628.205128	4525.641026	4022.564103	4097.948718	4518.461538	4443.076923	4266.666667	3963.589744	1734.000000	1677.000000	42.718000	0.000000	0.000000	0.000000	0.000000	1	1	0	0	0	0	0	0	0	0	0	0	0	0	0	0
58.000000	4358.974359	4386.153846	4405.128205	3714.358974	4383.076923	4612.307692	4630.769231	4524.102564	4025.128205	4101.538462	4516.923077	4442.564103	4267.179487	3965.641026	1733.000000	1677.000000	42.718000	0.000000	0.000000	0.000000	0.000000	1	1	0	0	0	0	0	0	0	0	0	0	0	0	0	0
59.000000	4359.487179	4387.179487	4408.205128	3712.820513	4382.564103	4612.307692	4630.256410	4525.128205	4023.589744	4103.589744	4516.923077	4441.538462	4269.230769	3962.564103	1734.000000	1678.000000	42.733000	0.000000	0.000000	0.000000	0.000000	1	1	0	0	0	0	0	0	0	0	0	0	0	0	0	0
60.000000	4361.538462	4387.692308	4409.230769	3711.794872	4382.051282	4610.769231	4630.256410	4526.153846	4025.641026	4103.076923	4516.923077	4440.512821	4267.692308	3961.025641	1733.000000	1677.000000	42.733000	0.000000	0.000000	0.000000	0.000000	1	1	0	0	0	0	0	0	0	0	0	0	0	0	0	0
61.000000	4359.487179	4387.179487	4408.717949	3712.820513	4383.076923	4610.256410	4632.820513	4523.076923	4029.743590	4104.102564	4517.435897	4442.051282	4266.153846	3958.461538	1733.000000	1678.000000	42.749000	0.000000	0.000000	0.000000	0.000000	1	1	0	0	0	0	0	0	0	0	0	0	0	0	0	0
62.000000	4358.461538	4389.743590	4409.230769	3712.307692	4382.051282	4610.769231	4631.794872	4522.564103	4028.717949	4102.564103	4517.948718	4440.000000	4267.692308	3959.487179	1734.000000	1678.000000	42.749000	0.000000	0.000000	0.000000	0.000000	1	1	0	0	0	0	0	0	0	0	0	0	0	0	0	0
63.000000	4359.487179	4390.256410	4410.769231	3714.358974	4383.076923	4609.743590	4627.179487	4527.692308	4028.717949	4096.410256	4515.384615	4438.974359	4269.230769	3958.461538	1734.000000	1678.000000	42.765000	0.000000	0.000000	0.000000	0.000000	1	1	0	0	0	0	0	0	0	0	0	0	0	0	0	0
64.000000	4358.461538	4386.666667	4410.769231	3716.410256	4385.641026	4610.256410	4627.179487	4528.205128	4029.230769	4097.948718	4514.871795	4441.025641	4269.230769	3958.974359	1734.000000	1677.000000	42.765000	0.000000	0.000000	0.000000	0.000000	1	1	0	0	0	0	0	0	0	0	0	0	0	0	0	0
65.000000	4355.384615	4386.153846	4409.230769	3713.333333	4383.589744	4612.307692	4631.282051	4524.615385	4029.743590	4103.589744	4516.410256	4442.051282	4268.205128	3958.974359	1733.000000	1677.000000	42.780000	0.000000	0.000000	0.000000	0.000000	1	1	0	0	0	0	0	0	0	0	0	0	0	0	0	0
66.000000	4355.897436	4389.230769	4408.205128	3709.743590	4380.000000	4610.769231	4631.282051	4523.076923	4029.230769	4099.487179	4518.461538	4440.000000	4267.692308	3958.461538	1734.000000	1677.000000	42.780000	0.000000	0.000000	0.000000	0.000000	1	1	0	0	0	0	0	0	0	0	0	0	0	0	0	0
67.000000	4356.410256	4389.230769	4408.717949	3712.307692	4381.538462	4609.743590	4630.769231	4527.179487	4026.666667	4095.897436	4517.435897	4441.025641	4267.179487	3956.923077	1733.000000	1678.000000	42.801000	0.000000	0.000000	0.000000	0.000000	1	1	0	0	0	0	0	0	0	0	0	0	0	0	0	0
68.000000	4355.384615	4389.230769	4409.743590	3715.384615	4384.615385	4610.256410	4631.282051	4528.205128	4026.153846	4102.564103	4515.897436	4441.025641	4268.205128	3957.948718	1735.000000	1678.000000	42.801000	0.000000	0.000000	0.000000	0.000000	1	1	0	0	0	0	0	0	0	0	0	0	0	0	0	0
69.000000	4355.384615	4386.666667	4410.256410	3711.282051	4383.589744	4612.307692	4632.307692	4526.666667	4027.179487	4104.615385	4515.897436	4440.000000	4267.692308	3955.897436	1734.000000	1677.000000	42.816000	0.000000	0.000000	0.000000	0.000000	1	1	0	0	0	0	0	0	0	0	0	0	0	0	0	0
70.000000	4356.923077	4384.102564	4410.769231	3709.230769	4382.051282	4614.358974	4632.307692	4528.205128	4024.102564	4101.538462	4516.923077	4440.000000	4267.179487	3954.871795	1734.000000	1678.000000	42.816000	0.000000	0.000000	0.000000	0.000000	1	1	0	0	0	0	0	0	0	0	0	0	0	0	0	0
71.000000	4357.948718	4388.205128	4408.717949	3712.820513	4383.076923	4614.358974	4632.307692	4528.205128	4025.641026	4103.076923	4514.871795	4440.000000	4267.692308	3955.897436	1734.000000	1677.000000	42.832000	0.000000	0.000000	0.000000	0.000000	1	1	0	0	0	0	0	0	0	0	0	0	0	0	0	0
72.000000	4356.410256	4390.256410	4406.153846	3712.820513	4383.589744	4612.307692	4634.358974	4523.589744	4031.794872	4104.615385	4512.820513	4440.000000	4266.666667	3953.333333	1734.000000	1678.000000	42.832000	0.000000	0.000000	0.000000	0.000000	1	1	0	0	0	0	0	0	0	0	0	0	0	0	0	0
73.000000	4355.384615	4388.205128	4406.666667	3711.794872	4382.051282	4612.307692	4634.358974	4526.153846	4029.230769	4103.076923	4515.897436	4440.512821	4268.205128	3950.256410	1734.000000	1677.000000	42.848000	0.000000	0.000000	0.000000	0.000000	1	1	0	0	0	0	0	0	0	0	0	0	0	0	0	0
74.000000	4357.948718	4389.230769	4410.256410	3713.333333	4383.589744	4614.358974	4632.307692	4530.769231	4027.179487	4102.564103	4515.897436	4439.487179	4269.230769	3951.282051	1734.000000	1677.000000	42.848000	0.000000	0.000000	0.000000	0.000000	1	1	0	0	0	0	0	0	0	0	0	0	0	0	0	0
75.000000	4358.461538	4389.743590	4410.769231	3713.333333	4386.153846	4611.282051	4630.256410	4527.179487	4029.230769	4103.076923	4513.333333	4439.487179	4266.666667	3954.358974	1734.000000	1676.000000	42.863000	0.000000	0.000000	0.000000	0.000000	1	1	0	0	0	0	0	0	0	0	0	0	0	0	0	0
76.000000	4358.461538	4387.692308	4409.230769	3712.307692	4384.102564	4610.769231	4629.743590	4525.128205	4022.564103	4103.076923	4512.307692	4440.512821	4265.128205	3952.307692	1734.000000	1678.000000	42.863000	0.000000	0.000000	0.000000	0.000000	1	1	0	0	0	0	0	0	0	0	0	0	0	0	0	0
77.000000	4360.000000	4389.230769	4407.692308	3712.820513	4382.564103	4615.384615	4631.282051	4526.666667	4022.564103	4102.564103	4514.871795	4437.435897	4268.205128	3954.358974	1734.000000	1677.000000	42.879000	0.000000	0.000000	0.000000	0.000000	1	1	0	0	0	0	0	0	0	0	0	0	0	0	0	0
78.000000	4358.461538	4390.769231	4407.179487	3712.820513	4384.615385	4614.871795	4633.333333	4525.128205	4031.794872	4103.076923	4513.846154	4435.897436	4269.230769	3953.846154	1733.000000	1678.000000	42.879000	0.000000	0.000000	0.000000	0.000000	1	1	0	0	0	0	0	0	0	0	0	0	0	0	0	0
79.000000	4357.948718	4389.230769	4409.743590	3712.820513	4384.102564	4609.230769	4631.794872	4525.128205	4032.307692	4102.564103	4513.333333	4437.435897	4268.717949	3953.846154	1734.000000	1678.000000	42.895000	0.000000	0.000000	0.000000	0.000000	1	1	0	0	0	0	0	0	0	0	0	0	0	0	0	0
80.000000	4357.435897	4387.692308	4411.282051	3712.307692	4383.589744	4609.743590	4631.794872	4526.666667	4029.230769	4103.076923	4513.846154	4440.000000	4268.205128	3954.358974	1733.000000	1677.000000	42.895000	0.000000	0.000000	0.000000	0.000000	1	1	0	0	0	0	0	0	0	0	0	0	0	0	0	0
81.000000	4357.435897	4387.179487	4407.692308	3709.230769	4385.641026	4612.820513	4633.846154	4526.153846	4030.256410	4102.564103	4514.871795	4439.487179	4267.692308	3955.384615	1734.000000	1678.000000	42.910000	0.000000	0.000000	0.000000	0.000000	1	1	0	0	0	0	0	0	0	0	0	0	0	0	0	0
82.000000	4357.948718	4389.230769	4409.230769	3709.230769	4384.102564	4612.307692	4633.333333	4527.179487	4027.179487	4103.076923	4514.871795	4439.487179	4266.153846	3954.871795	1735.000000	1677.000000	42.915000	0.000000	0.000000	0.000000	0.000000	1	1	0	0	0	0	0	0	0	0	0	0	0	0	0	0
83.000000	4359.487179	4391.282051	4410.769231	3712.820513	4381.538462	4610.769231	4629.743590	4527.692308	4024.102564	4102.564103	4516.410256	4438.974359	4265.128205	3957.435897	1734.000000	1678.000000	42.915000	0.000000	0.000000	0.000000	0.000000	1	1	0	0	0	0	0	0	0	0	0	0	0	0	0	0
84.000000	4357.435897	4388.205128	4407.179487	3713.333333	4385.128205	4609.743590	4627.179487	4526.666667	4024.615385	4102.564103	4514.871795	4437.948718	4266.153846	3955.897436	1735.000000	1677.000000	42.930000	0.000000	0.000000	0.000000	0.000000	1	1	0	0	0	0	0	0	0	0	0	0	0	0	0	0
85.000000	4355.384615	4386.153846	4406.153846	3711.282051	4386.666667	4610.769231	4628.717949	4526.666667	4024.102564	4103.076923	4513.333333	4437.948718	4266.666667	3952.307692	1734.000000	1677.000000	42.930000	0.000000	0.000000	0.000000	0.000000	1	1	0	0	0	0	0	0	0	0	0	0	0	0	0	0
86.000000	4355.384615	4389.230769	4406.666667	3712.307692	4382.564103	4613.846154	4631.282051	4525.641026	4024.615385	4102.564103	4516.923077	4438.461538	4266.153846	3954.871795	1734.000000	1677.000000	42.946000	0.000000	0.000000	0.000000	0.000000	1	1	0	0	0	0	0	0	0	0	0	0	0	0	0	0
87.000000	4355.897436	4391.794872	4404.102564	3713.333333	4382.564103	4614.358974	4631.794872	4524.615385	4027.692308	4103.076923	4516.923077	4438.461538	4267.179487	3957.435897	1734.000000	1677.000000	42.946000	0.000000	0.000000	0.000000	0.000000	1	1	0	0	0	0	0	0	0	0	0	0	0	0	0	0
88.000000	4357.435897	4391.794872	4406.153846	3712.307692	4384.615385	4613.333333	4631.794872	4526.153846	4025.128205	4102.564103	4513.333333	4437.948718	4268.205128	3954.871795	1734.000000	1677.000000	42.962000	0.000000	0.000000	0.000000	0.000000	1	1	0	0	0	0	0	0	0	0	0	0	0	0	0	0
89.000000	4357.948718	4389.743590	4408.717949	3712.820513	4382.564103	4612.820513	4632.820513	4527.179487	4022.051282	4103.076923	4513.333333	4439.487179	4268.205128	3953.846154	1733.000000	1677.000000	42.962000	0.000000	0.000000	0.000000	0.000000	1	1	0	0	0	0	0	0	0	0	0	0	0	0	0	0
90.000000	4357.948718	4388.205128	4406.153846	3713.333333	4382.564103	4612.820513	4631.794872	4526.666667	4025.641026	4102.564103	4513.846154	4441.025641	4267.692308	3957.435897	1734.000000	1677.000000	42.977000	0.000000	0.000000	0.000000	0.000000	1	1	0	0	0	0	0	0	0	0	0	0	0	0	0	0
91.000000	4356.923077	4388.717949	4406.666667	3713.333333	4385.128205	4611.282051	4631.794872	4527.179487	4032.307692	4103.076923	4511.794872	4440.512821	4266.666667	3956.923077	1734.000000	1678.000000	42.977000	0.000000	0.000000	0.000000	0.000000	1	1	0	0	0	0	0	0	0	0	0	0	0	0	0	0
92.000000	4356.410256	4389.743590	4408.205128	3713.846154	4384.615385	4611.794872	4631.794872	4527.179487	4031.282051	4102.564103	4514.871795	4440.512821	4266.153846	3958.461538	1735.000000	1677.000000	42.993000	0.000000	0.000000	0.000000	0.000000	1	1	0	0	0	0	0	0	0	0	0	0	0	0	0	0
93.000000	4357.948718	4385.641026	4407.179487	3711.282051	4382.051282	4612.307692	4630.769231	4525.641026	4025.641026	4103.076923	4517.435897	4441.025641	4266.666667	3957.948718	1734.000000	1678.000000	42.993000	0.000000	0.000000	0.000000	0.000000	1	1	0	0	0	0	0	0	0	0	0	0	0	0	0	0
94.000000	4358.974359	4385.128205	4407.179487	3712.307692	4381.538462	4611.794872	4630.769231	4524.615385	4025.641026	4102.564103	4517.948718	4438.461538	4268.205128	3957.435897	1734.000000	1678.000000	43.008000	0.000000	0.000000	0.000000	0.000000	1	1	0	0	0	0	0	0	0	0	0	0	0	0	0	0
95.000000	4357.948718	4388.717949	4409.743590	3714.871795	4383.076923	4611.794872	4632.820513	4526.666667	4025.641026	4103.076923	4518.461538	4437.948718	4267.179487	3955.897436	1734.000000	1678.000000	43.008000	0.000000	0.000000	0.000000	0.000000	1	1	0	0	0	0	0	0	0	0	0	0	0	0	0	0
96.000000	4358.461538	4388.717949	4409.230769	3713.846154	4382.564103	4612.307692	4631.282051	4527.692308	4024.102564	4102.564103	4518.461538	4438.974359	4266.666667	3957.435897	1735.000000	1677.000000	43.024000	0.000000	0.000000	0.000000	0.000000	1	1	0	0	0	0	0	0	0	0	0	0	0	0	0	0
97.000000	4358.461538	4387.179487	4407.179487	3712.307692	4381.538462	4610.256410	4628.717949	4527.179487	4028.717949	4103.076923	4516.410256	4439.487179	4268.717949	3955.897436	1733.000000	1678.000000	43.029000	0.000000	0.000000	0.000000	0.000000	1	1	0	0	0	0	0	0	0	0	0	0	0	0	0	0
98.000000	4357.435897	4387.179487	4406.666667	3713.846154	4382.051282	4608.205128	4630.769231	4526.153846	4032.307692	4102.564103	4515.384615	4441.025641	4267.692308	3956.923077	1735.000000	1678.000000	43.044000	0.000000	0.000000	0.000000	0.000000	1	1	0	0	0	0	0	0	0	0	0	0	0	0	0	0
99.000000	4356.923077	4387.692308	4409.230769	3712.820513	4382.051282	4610.769231	4631.794872	4525.128205	4026.153846	4102.564103	4514.871795	4444.102564	4264.615385	3955.897436	1734.000000	1677.000000	43.044000	0.000000	0.000000	0.000000	0.000000	1	1	0	0	0	0	0	0	0	0	0	0	0	0	0	0
100.000000	4358.974359	4388.205128	4411.282051	3711.794872	4381.538462	4610.769231	4628.717949	4525.641026	4023.589744	4103.076923	4515.384615	4441.538462	4266.666667	3954.871795	1734.000000	1678.000000	43.044000	0.000000	0.000000	0.000000	0.000000	1	1	0	0	0	0	0	0	0	0	0	0	0	0	0	0
101.000000	4358.974359	4387.179487	4408.205128	3712.820513	4382.051282	4609.743590	4629.230769	4524.102564	4027.179487	4102.564103	4515.384615	4437.435897	4267.692308	3956.923077	1735.000000	1676.000000	43.060000	0.000000	0.000000	0.000000	0.000000	1	1	0	0	0	0	0	0	0	0	0	0	0	0	0	0
102.000000	4357.948718	4387.179487	4406.666667	3712.820513	4382.564103	4610.256410	4630.256410	4522.051282	4025.641026	4103.076923	4516.923077	4440.000000	4265.128205	3960.000000	1734.000000	1678.000000	43.060000	0.000000	0.000000	0.000000	0.000000	1	1	0	0	0	0	0	0	0	0	0	0	0	0	0	0
103.000000	4358.461538	4387.692308	4409.743590	3713.333333	4384.102564	4611.282051	4627.692308	4525.128205	4024.615385	4102.564103	4518.461538	4440.512821	4267.179487	3959.487179	1735.000000	1677.000000	43.075000	0.000000	0.000000	0.000000	0.000000	1	1	0	0	0	0	0	0	0	0	0	0	0	0	0	0
104.000000	4357.948718	4385.641026	4409.743590	3713.333333	4385.641026	4612.307692	4629.743590	4528.717949	4026.153846	4103.076923	4517.948718	4439.487179	4269.230769	3958.461538	1734.000000	1678.000000	43.091000	0.000000	0.000000	0.000000	0.000000	1	1	0	0	0	0	0	0	0	0	0	0	0	0	0	0
105.000000	4357.435897	4385.641026	4407.179487	3710.769231	4382.564103	4611.794872	4631.794872	4526.666667	4028.205128	4103.076923	4515.384615	4440.512821	4267.692308	3958.461538	1734.000000	1677.000000	43.091000	0.000000	0.000000	0.000000	0.000000	1	1	0	0	0	0	0	0	0	0	0	0	0	0	0	0
106.000000	4359.487179	4387.692308	4405.641026	3709.743590	4381.025641	4611.794872	4628.717949	4527.179487	4030.256410	4102.564103	4514.358974	4442.051282	4268.205128	3956.923077	1734.000000	1677.000000	43.091000	0.000000	0.000000	0.000000	0.000000	1	1	0	0	0	0	0	0	0	0	0	0	0	0	0	0
107.000000	4362.564103	4388.205128	4408.205128	3713.333333	4382.051282	4611.282051	4630.256410	4526.153846	4027.179487	4102.564103	4516.410256	4440.512821	4269.230769	3960.000000	1735.000000	1678.000000	43.107000	0.000000	0.000000	0.000000	0.000000	1	1	0	0	0	0	0	0	0	0	0	0	0	0	0	0
108.000000	4360.512821	4388.717949	4409.743590	3714.871795	4382.051282	4611.282051	4633.846154	4523.076923	4022.564103	4104.102564	4514.871795	4438.974359	4267.692308	3960.512821	1734.000000	1678.000000	43.122000	0.000000	0.000000	0.000000	0.000000	1	1	0	0	0	0	0	0	0	0	0	0	0	0	0	0
109.000000	4357.435897	4389.743590	4407.179487	3712.820513	4382.051282	4612.820513	4631.794872	4524.615385	4024.615385	4101.538462	4516.410256	4437.948718	4269.743590	3960.000000	1735.000000	1678.000000	43.122000	0.000000	0.000000	0.000000	0.000000	1	1	0	0	0	0	0	0	0	0	0	0	0	0	0	0
110.000000	4357.948718	4386.666667	4407.692308	3711.282051	4383.076923	4613.333333	4631.282051	4524.102564	4025.641026	4098.461538	4518.461538	4440.000000	4271.282051	3957.948718	1733.000000	1677.000000	43.139000	0.000000	0.000000	0.000000	0.000000	1	1	0	0	0	0	0	0	0	0	0	0	0	0	0	0
111.000000	4358.461538	4386.153846	4409.230769	3712.307692	4382.564103	4611.282051	4633.333333	4521.538462	4024.102564	4100.000000	4519.487179	4442.051282	4267.179487	3960.000000	1734.000000	1678.000000	43.143000	0.000000	0.000000	0.000000	0.000000	1	1	0	0	0	0	0	0	0	0	0	0	0	0	0	0
112.000000	4358.461538	4388.205128	4408.205128	3712.307692	4382.564103	4610.769231	4630.769231	4526.666667	4027.692308	4101.025641	4517.948718	4440.000000	4266.666667	3960.512821	1735.000000	1677.000000	43.143000	0.000000	0.000000	0.000000	0.000000	1	1	0	0	0	0	0	0	0	0	0	0	0	0	0	0
113.000000	4360.512821	4387.179487	4408.205128	3713.846154	4382.564103	4611.794872	4629.743590	4528.717949	4028.717949	4100.512821	4517.948718	4438.461538	4271.794872	3962.564103	1733.000000	1678.000000	43.158000	0.000000	0.000000	0.000000	0.000000	1	1	0	0	0	0	0	0	0	0	0	0	0	0	0	0
114.000000	4358.974359	4386.666667	4410.256410	3713.846154	4382.051282	4610.769231	4630.769231	4523.589744	4023.076923	4103.589744	4517.948718	4440.512821	4270.769231	3962.564103	1735.000000	1677.000000	43.158000	0.000000	0.000000	0.000000	0.000000	1	1	0	0	0	0	0	0	0	0	0	0	0	0	0	0
115.000000	4357.948718	4388.205128	4410.256410	3710.769231	4381.025641	4611.282051	4630.769231	4522.564103	4021.025641	4105.128205	4516.923077	4442.051282	4266.153846	3961.538462	1733.000000	1677.000000	43.174000	0.000000	0.000000	0.000000	0.000000	1	1	0	0	0	0	0	0	0	0	0	0	0	0	0	0
116.000000	4360.512821	4388.205128	4409.230769	3711.794872	4383.076923	4612.307692	4633.333333	4525.128205	4023.589744	4102.564103	4517.435897	4440.512821	4266.153846	3962.051282	1735.000000	1678.000000	43.174000	0.000000	0.000000	0.000000	0.000000	1	1	0	0	0	0	0	0	0	0	0	0	0	0	0	0
117.000000	4358.974359	4387.692308	4408.717949	3712.820513	4385.641026	4610.769231	4631.282051	4525.641026	4026.153846	4103.076923	4517.435897	4440.000000	4268.205128	3964.615385	1733.000000	1677.000000	43.190000	0.000000	0.000000	0.000000	0.000000	1	1	0	0	0	0	0	0	0	0	0	0	0	0	0	0
118.000000	4355.897436	4387.692308	4408.205128	3711.282051	4383.589744	4610.256410	4626.153846	4527.692308	4026.666667	4104.615385	4517.435897	4444.615385	4269.230769	3964.615385	1734.000000	1677.000000	43.190000	0.000000	0.000000	0.000000	0.000000	1	1	0	0	0	0	0	0	0	0	0	0	0	0	0	0
119.000000	4358.461538	4386.666667	4407.692308	3711.794872	4381.025641	4610.769231	4628.205128	4525.641026	4026.153846	4103.589744	4518.461538	4443.589744	4268.717949	3962.564103	1734.000000	1677.000000	43.205000	0.000000	0.000000	0.000000	0.000000	1	1	0	0	0	0	0	0	0	0	0	0	0	0	0	0
120.000000	4360.512821	4387.692308	4407.179487	3712.307692	4382.051282	4609.743590	4630.769231	4525.128205	4025.641026	4103.076923	4519.487179	4438.461538	4266.666667	3962.564103	1735.000000	1677.000000	43.205000	0.000000	0.000000	0.000000	0.000000	1	1	0	0	0	0	0	0	0	0	0	0	0	0	0	0
121.000000	4358.974359	4389.743590	4407.179487	3711.282051	4383.076923	4609.743590	4629.230769	4529.230769	4022.051282	4102.564103	4518.461538	4440.512821	4266.666667	3962.564103	1734.000000	1676.000000	43.221000	0.000000	0.000000	0.000000	0.000000	1	1	0	0	0	0	0	0	0	0	0	0	0	0	0	0
122.000000	4360.512821	4388.717949	4406.666667	3712.307692	4383.076923	4611.282051	4627.692308	4525.641026	4024.102564	4103.076923	4516.410256	4443.076923	4269.743590	3963.076923	1734.000000	1678.000000	43.221000	0.000000	0.000000	0.000000	0.000000	1	1	0	0	0	0	0	0	0	0	0	0	0	0	0	0
123.000000	4359.487179	4387.179487	4407.179487	3711.282051	4383.076923	4611.794872	4628.205128	4520.512821	4032.307692	4102.564103	4516.410256	4441.538462	4269.230769	3961.538462	1734.000000	1677.000000	43.237000	0.000000	0.000000	0.000000	0.000000	1	1	0	0	0	0	0	0	0	0	0	0	0	0	0	0
124.000000	4356.923077	4385.128205	4406.666667	3710.769231	4381.538462	4610.769231	4629.230769	4522.051282	4029.230769	4102.564103	4518.974359	4442.051282	4269.230769	3960.000000	1733.000000	1678.000000	43.237000	0.000000	0.000000	0.000000	0.000000	1	1	0	0	0	0	0	0	0	0	0	0	0	0	0	0
125.000000	4359.487179	4385.128205	4406.666667	3713.846154	4381.538462	4610.769231	4630.256410	4524.102564	4021.538462	4103.076923	4521.025641	4443.076923	4269.230769	3958.461538	1734.000000	1677.000000	43.252000	0.000000	0.000000	0.000000	0.000000	1	1	0	0	0	0	0	0	0	0	0	0	0	0	0	0
126.000000	4361.538462	4386.153846	4409.230769	3714.358974	4383.076923	4609.743590	4627.179487	4522.051282	4024.102564	4102.564103	4521.025641	4441.025641	4267.692308	3963.589744	1733.000000	1678.000000	43.257000	0.000000	0.000000	0.000000	0.000000	1	1	0	0	0	0	0	0	0	0	0	0	0	0	0	0
127.000000	4358.974359	4384.615385	4409.743590	3711.282051	4383.589744	4610.256410	4626.153846	4523.589744	4025.641026	4103.076923	4516.923077	4442.051282	4266.666667	3963.589744	1734.000000	1678.000000	43.257000	0.000000	0.000000	0.000000	0.000000	1	1	0	0	0	0	0	0	0	0	0	0	0	0	0	0
128.000000	4358.974359	4384.615385	4407.179487	3713.333333	4382.564103	4611.282051	4628.717949	4524.102564	4022.051282	4102.564103	4514.871795	4441.538462	4267.692308	3960.512821	1734.000000	1677.000000	43.272000	0.000000	0.000000	0.000000	0.000000	1	1	0	0	0	0	0	0	0	0	0	0	0	0	0	0
0.000000	4360.512821	4388.205128	4407.179487	3714.358974	4382.051282	4610.769231	4629.230769	4522.051282	4028.717949	4102.564103	4515.897436	4441.025641	4266.666667	3962.051282	1734.000000	1678.000000	43.272000	0.000000	0.000000	0.000000	0.000000	1	1	0	0	0	0	0	0	0	0	0	0	0	0	0	0
1.000000	4358.974359	4391.282051	4408.717949	3711.794872	4382.051282	4609.743590	4627.692308	4523.076923	4031.794872	4103.076923	4518.974359	4442.564103	4267.179487	3966.153846	1734.000000	1677.000000	43.288000	0.000000	0.000000	0.000000	0.000000	1	1	0	0	0	0	0	0	0	0	0	0	0	0	0	0
2.000000	4356.410256	4388.205128	4407.692308	3711.794872	4382.051282	4610.769231	4629.743590	4523.589744	4023.076923	4102.564103	4520.000000	4443.076923	4270.256410	3961.025641	1734.000000	1677.000000	43.288000	0.000000	0.000000	0.000000	0.000000	1	1	0	0	0	0	0	0	0	0	0	0	0	0	0	0
3.000000	4357.948718	4386.666667	4406.153846	3713.846154	4382.564103	4610.769231	4631.794872	4524.102564	4021.025641	4103.076923	4518.974359	4439.487179	4270.256410	3960.000000	1734.000000	1677.000000	43.304000	0.000000	0.000000	0.000000	0.000000	1	1	0	0	0	0	0	0	0	0	0	0	0	0	0	0
4.000000	4360.000000	4389.230769	4408.717949	3712.307692	4382.564103	4609.230769	4630.769231	4523.589744	4026.153846	4102.564103	4517.948718	4441.025641	4268.717949	3964.102564	1734.000000	1678.000000	43.304000	0.000000	0.000000	0.000000	0.000000	1	1	0	0	0	0	0	0	0	0	0	0	0	0	0	0
5.000000	4361.538462	4389.230769	4409.230769	3711.794872	4381.538462	4610.256410	4628.717949	4520.512821	4026.153846	4103.076923	4519.487179	4443.076923	4269.230769	3963.076923	1734.000000	1676.000000	43.319000	0.000000	0.000000	0.000000	0.000000	1	1	0	0	0	0	0	0	0	0	0	0	0	0	0	0
6.000000	4359.487179	4386.666667	4406.153846	3715.384615	4382.564103	4610.769231	4627.692308	4524.615385	4022.051282	4102.564103	4519.487179	4441.025641	4268.205128	3960.512821	1733.000000	1678.000000	43.319000	0.000000	0.000000	0.000000	0.000000	1	1	0	0	0	0	0	0	0	0	0	0	0	0	0	0
7.000000	4358.461538	4387.692308	4404.102564	3714.871795	4382.564103	4609.743590	4629.230769	4529.743590	4022.051282	4103.076923	4515.897436	4442.051282	4267.692308	3963.589744	1735.000000	1678.000000	43.335000	0.000000	0.000000	0.000000	0.000000	1	1	0	0	0	0	0	0	0	0	0	0	0	0	0	0
8.000000	4361.538462	4391.282051	4407.692308	3712.307692	4382.051282	4610.256410	4629.230769	4526.153846	4026.153846	4102.564103	4515.384615	4443.589744	4267.179487	3965.128205	1733.000000	1677.000000	43.335000	0.000000	0.000000	0.000000	0.000000	1	1	0	0	0	0	0	0	0	0	0	0	0	0	0	0
9.000000	4361.538462	4390.256410	4410.769231	3714.358974	4382.051282	4611.282051	4628.205128	4521.025641	4026.666667	4103.076923	4517.948718	4442.564103	4266.153846	3961.538462	1734.000000	1678.000000	43.350000	0.000000	0.000000	0.000000	0.000000	1	1	0	0	0	0	0	0	0	0	0	0	0	0	0	0
10.000000	4357.948718	4388.717949	4407.692308	3716.410256	4382.564103	4610.256410	4626.666667	4522.051282	4022.564103	4102.564103	4518.461538	4442.051282	4267.692308	3962.564103	1735.000000	1677.000000	43.350000	0.000000	0.000000	0.000000	0.000000	1	1	0	0	0	0	0	0	0	0	0	0	0	0	0	0
11.000000	4357.948718	4389.230769	4407.179487	3714.871795	4383.589744	4608.205128	4627.179487	4521.025641	4020.512821	4103.076923	4515.384615	4444.615385	4269.743590	3964.102564	1734.000000	1677.000000	43.370000	0.000000	0.000000	0.000000	0.000000	1	1	0	0	0	0	0	0	0	0	0	0	0	0	0	0
12.000000	4360.512821	4388.717949	4410.256410	3712.307692	4385.128205	4608.717949	4628.717949	4521.538462	4025.641026	4102.564103	4516.923077	4443.589744	4268.205128	3966.666667	1735.000000	1677.000000	43.370000	0.000000	0.000000	0.000000	0.000000	1	1	0	0	0	0	0	0	0	0	0	0	0	0	0	0
13.000000	4358.461538	4388.717949	4410.769231	3710.256410	4382.564103	4610.769231	4628.205128	4527.179487	4027.692308	4103.076923	4520.512821	4442.564103	4267.179487	3966.153846	1734.000000	1678.000000	43.386000	0.000000	0.000000	0.000000	0.000000	1	1	0	0	0	0	0	0	0	0	0	0	0	0	0	0
14.000000	4357.435897	4389.743590	4408.717949	3712.307692	4380.512821	4611.282051	4627.692308	4526.153846	4025.641026	4102.564103	4520.000000	4442.051282	4269.230769	3965.128205	1734.000000	1677.000000	43.386000	0.000000	0.000000	0.000000	0.000000	1	1	0	0	0	0	0	0	0	0	0	0	0	0	0	0
15.000000	4360.000000	4389.230769	4408.205128	3715.897436	4382.564103	4609.230769	4628.717949	4521.538462	4028.717949	4102.564103	4518.461538	4440.512821	4268.717949	3962.564103	1734.000000	1678.000000	43.402000	0.000000	0.000000	0.000000	0.000000	1	1	0	0	0	0	0	0	0	0	0	0	0	0	0	0
16.000000	4362.051282	4388.205128	4407.179487	3714.871795	4383.076923	4608.205128	4631.282051	4523.076923	4030.256410	4103.076923	4522.051282	4441.025641	4268.717949	3967.179487	1734.000000	1677.000000	43.402000	0.000000	0.000000	0.000000	0.000000	1	1	0	0	0	0	0	0	0	0	0	0	0	0	0	0
17.000000	4361.025641	4389.743590	4406.666667	3712.307692	4382.564103	4610.769231	4630.769231	4526.153846	4025.641026	4102.564103	4520.000000	4444.102564	4269.743590	3968.717949	1734.000000	1678.000000	43.417000	0.000000	0.000000	0.000000	0.000000	1	1	0	0	0	0	0	0	0	0	0	0	0	0	0	0
18.000000	4360.512821	4389.743590	4407.692308	3712.307692	4382.564103	4610.769231	4627.179487	4522.051282	4024.102564	4103.076923	4516.410256	4443.589744	4269.230769	3966.153846	1734.000000	1677.000000	43.417000	0.000000	0.000000	0.000000	0.000000	1	1	0	0	0	0	0	0	0	0	0	0	0	0	0	0
19.000000	4360.000000	4387.179487	4409.230769	3712.820513	4382.051282	4609.230769	4628.717949	4520.512821	4025.641026	4102.564103	4517.435897	4443.076923	4268.205128	3963.076923	1734.000000	1678.000000	43.433000	0.000000	0.000000	0.000000	0.000000	1	1	0	0	0	0	0	0	0	0	0	0	0	0	0	0
20.000000	4358.974359	4387.179487	4409.743590	3713.333333	4382.051282	4609.230769	4631.794872	4524.102564	4023.076923	4103.076923	4521.025641	4444.102564	4268.717949	3963.076923	1734.000000	1677.000000	43.433000	0.000000	0.000000	0.000000	0.000000	1	1	0	0	0	0	0	0	0	0	0	0	0	0	0	0
21.000000	4358.461538	4389.230769	4407.692308	3712.307692	4382.051282	4610.769231	4629.743590	4524.102564	4027.179487	4102.564103	4520.512821	4444.102564	4267.692308	3962.564103	1734.000000	1678.000000	43.449000	0.000000	0.000000	0.000000	0.000000	1	1	0	0	0	0	0	0	0	0	0	0	0	0	0	0
22.000000	4358.461538	4388.205128	4406.153846	3712.307692	4381.538462	4611.794872	4627.179487	4521.025641	4031.794872	4103.076923	4518.461538	4441.538462	4266.666667	3963.076923	1734.000000	1677.000000	43.449000	0.000000	0.000000	0.000000	0.000000	1	1	0	0	0	0	0	0	0	0	0	0	0	0	0	0
23.000000	4358.974359	4385.641026	4406.153846	3714.358974	4382.564103	4611.282051	4629.743590	4523.589744	4027.179487	4102.564103	4517.435897	4440.000000	4268.717949	3965.128205	1734.000000	1678.000000	43.464000	0.000000	0.000000	0.000000	0.000000	1	1	0	0	0	0	0	0	0	0	0	0	0	0	0	0
24.000000	4358.974359	4387.179487	4407.179487	3715.384615	4383.589744	4610.256410	4629.230769	4528.205128	4028.205128	4103.076923	4517.435897	4440.512821	4270.256410	3963.589744	1734.000000	1676.000000	43.464000	0.000000	0.000000	0.000000	0.000000	1	1	0	0	0	0	0	0	0	0	0	0	0	0	0	0
25.000000	4357.948718	4389.230769	4408.205128	3715.384615	4382.051282	4610.256410	4627.692308	4525.641026	4029.743590	4102.564103	4517.948718	4441.538462	4269.230769	3963.589744	1733.000000	1679.000000	43.480000	0.000000	0.000000	0.000000	0.000000	1	1	0	0	0	0	0	0	0	0	0	0	0	0	0	0
26.000000	4357.948718	4388.205128	4410.256410	3714.871795	4381.538462	4611.794872	4628.717949	4522.564103	4025.128205	4103.076923	4516.923077	4442.564103	4270.256410	3964.615385	1735.000000	1677.000000	43.484000	0.000000	0.000000	0.000000	0.000000	1	1	0	0	0	0	0	0	0	0	0	0	0	0	0	0
27.000000	4360.000000	4387.692308	4410.256410	3713.846154	4382.564103	4611.282051	4629.230769	4522.564103	4024.102564	4102.564103	4518.461538	4442.564103	4269.743590	3968.205128	1733.000000	1677.000000	43.484000	0.000000	0.000000	0.000000	0.000000	1	1	0	0	0	0	0	0	0	0	0	0	0	0	0	0
28.000000	4360.512821	4387.179487	4408.717949	3713.333333	4383.076923	4609.743590	4629.230769	4522.564103	4026.666667	4103.076923	4520.000000	4442.051282	4265.641026	3969.743590	1734.000000	1678.000000	43.500000	0.000000	0.000000	0.000000	0.000000	1	1	0	0	0	0	0	0	0	0	0	0	0	0	0	0
29.000000	4360.000000	4387.179487	4407.179487	3714.358974	4382.051282	4610.256410	4626.666667	4522.564103	4024.615385	4102.564103	4519.487179	4440.512821	4266.153846	3968.205128	1735.000000	1677.000000	43.500000	0.000000	0.000000	0.000000	0.000000	1	1	0	0	0	0	0	0	0	0	0	0	0	0	0	0
30.000000	4359.487179	4388.717949	4407.692308	3715.384615	4381.025641	4611.794872	4626.666667	4524.102564	4023.076923	4102.564103	4517.948718	4440.512821	4269.230769	3962.564103	1734.000000	1677.000000	43.515000	0.000000	0.000000	0.000000	0.000000	1	1	0	0	0	0	0	0	0	0	0	0	0	0	0	0
31.000000	4359.487179	4389.743590	4408.205128	3715.897436	4381.538462	4611.794872	4630.769231	4523.589744	4022.051282	4103.076923	4518.461538	4441.025641	4269.743590	3966.666667	1734.000000	1677.000000	43.515000	0.000000	0.000000	0.000000	0.000000	1	1	0	0	0	0	0	0	0	0	0	0	0	0	0	0
32.000000	4360.000000	4389.230769	4408.205128	3714.358974	4381.538462	4611.794872	4631.794872	4523.076923	4021.025641	4102.564103	4518.461538	4441.538462	4269.230769	3967.692308	1735.000000	1678.000000	43.531000	0.000000	0.000000	0.000000	0.000000	1	1	0	0	0	0	0	0	0	0	0	0	0	0	0	0
33.000000	4360.512821	4390.256410	4406.153846	3711.282051	4381.538462	4612.820513	4627.692308	4523.589744	4024.615385	4103.076923	4518.974359	4440.000000	4269.743590	3962.051282	1734.000000	1677.000000	43.531000	0.000000	0.000000	0.000000	0.000000	1	1	0	0	0	0	0	0	0	0	0	0	0	0	0	0
34.000000	4359.487179	4387.692308	4406.153846	3711.282051	4383.076923	4612.307692	4627.692308	4523.589744	4027.179487	4102.564103	4518.974359	4440.000000	4267.692308	3960.000000	1733.000000	1678.000000	43.547000	0.000000	0.000000	0.000000	0.000000	1	1	0	0	0	0	0	0	0	0	0	0	0	0	0	0
35.000000	4360.512821	4385.128205	4407.692308	3715.384615	4382.564103	4611.282051	4630.256410	4523.076923	4026.666667	4103.076923	4520.512821	4444.102564	4265.641026	3965.128205	1735.000000	1677.000000	43.547000	0.000000	0.000000	0.000000	0.000000	1	1	0	0	0	0	0	0	0	0	0	0	0	0	0	0
36.000000	4361.025641	4388.717949	4408.717949	3714.871795	4381.025641	4611.282051	4629.230769	4523.076923	4025.641026	4102.564103	4521.538462	4445.641026	4266.666667	3962.564103	1733.000000	1677.000000	43.562000	0.000000	0.000000	0.000000	0.000000	1	1	0	0	0	0	0	0	0	0	0	0	0	0	0	0
37.000000	4361.538462	4389.743590	4407.692308	3712.307692	4382.564103	4611.282051	4626.666667	4523.076923	4026.153846	4103.076923	4520.000000	4443.589744	4268.205128	3960.512821	1735.000000	1677.000000	43.562000	0.000000	0.000000	0.000000	0.000000	1	1	0	0	0	0	0	0	0	0	0	0	0	0	0	0
38.000000	4361.025641	4387.692308	4405.128205	3711.282051	4384.615385	4611.282051	4626.666667	4522.051282	4028.717949	4102.564103	4516.923077	4442.564103	4269.230769	3962.564103	1734.000000	1677.000000	43.578000	0.000000	0.000000	0.000000	0.000000	1	1	0	0	0	0	0	0	0	0	0	0	0	0	0	0
39.000000	4359.487179	4388.717949	4405.641026	3711.282051	4382.564103	4611.794872	4628.205128	4522.051282	4025.641026	4103.076923	4517.948718	4442.564103	4269.743590	3963.589744	1735.000000	1678.000000	43.578000	0.000000	0.000000	0.000000	0.000000	1	1	0	0	0	0	0	0	0	0	0	0	0	0	0	0
40.000000	4356.410256	4388.717949	4406.153846	3713.333333	4381.538462	4612.307692	4627.692308	4524.102564	4019.487179	4103.076923	4519.487179	4441.538462	4268.205128	3963.589744	1734.000000	1677.000000	43.598000	0.000000	0.000000	0.000000	0.000000	1	1	0	0	0	0	0	0	0	0	0	0	0	0	0	0
41.000000	4355.384615	4387.692308	4406.666667	3714.358974	4384.102564	4610.769231	4626.666667	4523.589744	4020.512821	4102.564103	4515.384615	4442.564103	4269.230769	3962.051282	1733.000000	1678.000000	43.598000	0.000000	0.000000	0.000000	0.000000	1	1	0	0	0	0	0	0	0	0	0	0	0	0	0	0
42.000000	4360.000000	4389.230769	4407.692308	3712.307692	4385.641026	4610.256410	4629.743590	4524.102564	4026.666667	4102.564103	4516.410256	4443.076923	4268.205128	3960.512821	1734.000000	1677.000000	43.614000	0.000000	0.000000	0.000000	0.000000	1	1	0	0	0	0	0	0	0	0	0	0	0	0	0	0
43.000000	4361.025641	4389.743590	4407.179487	3712.820513	4384.615385	4611.282051	4633.333333	4525.128205	4025.128205	4104.102564	4518.974359	4440.512821	4266.153846	3958.974359	1735.000000	1678.000000	43.614000	0.000000	0.000000	0.000000	0.000000	1	1	0	0	0	0	0	0	0	0	0	0	0	0	0	0
44.000000	4357.435897	4386.153846	4406.666667	3714.871795	4384.102564	4610.256410	4632.307692	4525.128205	4023.589744	4101.538462	4518.461538	4439.487179	4266.666667	3960.512821	1734.000000	1677.000000	43.629000	0.000000	0.000000	0.000000	0.000000	1	1	0	0	0	0	0	0	0	0	0	0	0	0	0	0
45.000000	4355.897436	4386.666667	4409.743590	3714.358974	4384.615385	4609.230769	4631.282051	4523.589744	4027.179487	4098.461538	4516.410256	4441.025641	4266.153846	3958.974359	1734.000000	1678.000000	43.629000	0.000000	0.000000	0.000000	0.000000	1	1	0	0	0	0	0	0	0	0	0	0	0	0	0	0
