Counter	AF3	F7	F3	FC5	T7	P7	O1	O2	P8	T8	FC6	F4	F8	AF4	GyroX	GyroY	Timestamp	FUNC_ID	FUNC_VALUE	MARKER	SYNC_SIGNAL	CMS_Q	DRL_Q	AF3_Q	F7_Q	F3_Q	FC5_Q	T7_Q	P7_Q	O1_Q	O2_Q	P8_Q	T8_Q	FC6_Q	F4_Q	F8_Q	AF4_Q
111.000000	4360.000000	4385.641026	4409.230769	3714.358974	4381.538462	4612.307692	4628.717949	4527.179487	4022.051282	4103.589744	4517.948718	4442.564103	4269.743590	3960.512821	1735.000000	1676.000000	120.805000	0.000000	0.000000	0.000000	0.000000	1	1	0	0	0	0	0	0	0	0	0	0	0	0	0	0
112.000000	4359.487179	4385.128205	4407.179487	3715.897436	4382.051282	4613.846154	4628.205128	4524.615385	4028.717949	4100.000000	4518.974359	4442.564103	4266.666667	3961.025641	1734.000000	1678.000000	120.820000	0.000000	0.000000	0.000000	0.000000	1	1	0	0	0	0	0	0	0	0	0	0	0	0	0	0
113.000000	4357.435897	4385.641026	4406.666667	3715.384615	4382.564103	4613.846154	4633.846154	4525.128205	4032.307692	4099.487179	4517.435897	4440.512821	4265.641026	3960.000000	1736.000000	1677.000000	120.820000	0.000000	0.000000	0.000000	0.000000	1	1	0	0	0	0	0	0	0	0	0	0	0	0	0	0
114.000000	4361.538462	4387.179487	4407.692308	3713.333333	4383.589744	4610.769231	4631.794872	4525.128205	4026.666667	4104.102564	4517.435897	4440.000000	4267.692308	3960.000000	1734.000000	1677.000000	120.841000	0.000000	0.000000	0.000000	0.000000	1	1	0	0	0	0	0	0	0	0	0	0	0	0	0	0
115.000000	4360.512821	4388.205128	4405.641026	3713.846154	4385.128205	4609.230769	4627.179487	4523.076923	4021.538462	4105.128205	4517.948718	4441.538462	4268.717949	3958.461538	1736.000000	1678.000000	120.841000	0.000000	0.000000	0.000000	0.000000	1	1	0	0	0	0	0	0	0	0	0	0	0	0	0	0
116.000000	4356.410256	4387.179487	4405.641026	3716.410256	4382.564103	4610.769231	4630.256410	4521.538462	4024.102564	4101.025641	4517.948718	4442.051282	4268.717949	3958.974359	1735.000000	1677.000000	120.856000	0.000000	0.000000	0.000000	0.000000	1	1	0	0	0	0	0	0	0	0	0	0	0	0	0	0
117.000000	4357.435897	4386.153846	4408.717949	3714.871795	4380.512821	4612.820513	4632.820513	4522.564103	4027.179487	4100.512821	4517.435897	4442.564103	4269.230769	3958.974359	1735.000000	1678.000000	120.856000	0.000000	0.000000	0.000000	0.000000	1	1	0	0	0	0	0	0	0	0	0	0	0	0	0	0
118.000000	4360.000000	4387.692308	4410.769231	3711.794872	4382.564103	4610.769231	4630.769231	4523.076923	4026.153846	4102.051282	4517.948718	4442.051282	4270.769231	3960.512821	1735.000000	1677.000000	120.872000	0.000000	0.000000	0.000000	0.000000	1	1	0	0	0	0	0	0	0	0	0	0	0	0	0	0
119.000000	4360.000000	4388.717949	4410.256410	3712.820513	4383.076923	4612.307692	4631.794872	4524.615385	4024.102564	4101.025641	4519.487179	4442.564103	4270.769231	3961.025641	1735.000000	1678.000000	120.872000	0.000000	0.000000	0.000000	0.000000	1	1	0	0	0	0	0	0	0	0	0	0	0	0	0	0
120.000000	4359.487179	4388.717949	4408.205128	3715.384615	4381.025641	4614.358974	4632.820513	4524.102564	4021.538462	4101.025641	4521.025641	4443.076923	4268.717949	3962.564103	1735.000000	1677.000000	120.888000	0.000000	0.000000	0.000000	0.000000	1	1	0	0	0	0	0	0	0	0	0	0	0	0	0	0
121.000000	4359.487179	4387.692308	4407.692308	3713.846154	4381.025641	4613.333333	4629.230769	4523.076923	4023.589744	4101.538462	4518.974359	4442.051282	4267.179487	3958.974359	1735.000000	1678.000000	120.888000	0.000000	0.000000	0.000000	0.000000	1	1	0	0	0	0	0	0	0	0	0	0	0	0	0	0
122.000000	4359.487179	4386.666667	4407.179487	3712.307692	4381.538462	4614.358974	4630.256410	4524.615385	4025.641026	4101.538462	4517.435897	4440.512821	4269.230769	3957.948718	1736.000000	1677.000000	120.903000	0.000000	0.000000	0.000000	0.000000	1	1	0	0	0	0	0	0	0	0	0	0	0	0	0	0
123.000000	4362.051282	4386.666667	4407.692308	3714.358974	4383.076923	4614.358974	4632.307692	4525.641026	4022.051282	4101.538462	4518.974359	4440.512821	4268.205128	3956.923077	1734.000000	1678.000000	120.903000	0.000000	0.000000	0.000000	0.000000	1	1	0	0	0	0	0	0	0	0	0	0	0	0	0	0
124.000000	4362.051282	4389.230769	4408.717949	3715.897436	4384.615385	4613.333333	4629.230769	4525.128205	4022.564103	4101.538462	4521.538462	4438.461538	4265.128205	3957.435897	1736.000000	1677.000000	120.919000	0.000000	0.000000	0.000000	0.000000	1	1	0	0	0	0	0	0	0	0	0	0	0	0	0	0
125.000000	4358.461538	4390.256410	4408.205128	3713.846154	4382.051282	4612.820513	4627.179487	4526.153846	4029.230769	4101.538462	4518.461538	4437.948718	4266.666667	3958.461538	1734.000000	1677.000000	120.919000	0.000000	0.000000	0.000000	0.000000	1	1	0	0	0	0	0	0	0	0	0	0	0	0	0	0
126.000000	4358.461538	4390.769231	4407.692308	3715.384615	4380.512821	4611.794872	4627.692308	4526.666667	4031.282051	4101.538462	4517.435897	4440.512821	4269.743590	3961.025641	1736.000000	1678.000000	120.934000	0.000000	0.000000	0.000000	0.000000	1	1	0	0	0	0	0	0	0	0	0	0	0	0	0	0
127.000000	4359.487179	4391.282051	4408.717949	3714.871795	4382.564103	4608.717949	4632.307692	4526.666667	4026.153846	4101.538462	4516.923077	4442.564103	4269.743590	3960.000000	1735.000000	1677.000000	120.934000	0.000000	0.000000	0.000000	0.000000	1	1	0	0	0	0	0	0	0	0	0	0	0	0	0	0
128.000000	4359.487179	4390.256410	4409.230769	3713.333333	4383.076923	4610.256410	4632.820513	4524.615385	4023.589744	4101.538462	4515.384615	4442.051282	4268.205128	3957.948718	1734.000000	1678.000000	120.950000	0.000000	0.000000	0.000000	0.000000	1	1	0	0	0	0	0	0	0	0	0	0	0	0	0	0
0.000000	4360.000000	4387.179487	4407.692308	3715.384615	4381.538462	4613.333333	4628.717949	4525.641026	4027.692308	4101.538462	4515.897436	4441.538462	4266.153846	3958.461538	1735.000000	1677.000000	120.954000	0.000000	0.000000	0.000000	0.000000	1	1	0	0	0	0	0	0	0	0	0	0	0	0	0	0
1.000000	4360.512821	4386.153846	4406.666667	3716.410256	4382.051282	4610.256410	4628.717949	4527.179487	4031.794872	4101.538462	4519.487179	4442.051282	4267.179487	3961.538462	1734.000000	1678.000000	120.954000	0.000000	0.000000	0.000000	0.000000	1	1	0	0	0	0	0	0	0	0	0	0	0	0	0	0
2.000000	4358.974359	4388.717949	4404.615385	3713.846154	4383.076923	4610.769231	4632.820513	4524.102564	4026.666667	4101.538462	4520.000000	4441.538462	4269.743590	3962.051282	1735.000000	1677.000000	120.970000	0.000000	0.000000	0.000000	0.000000	1	1	0	0	0	0	0	0	0	0	0	0	0	0	0	0
3.000000	4357.435897	4387.692308	4405.641026	3713.333333	4383.076923	4612.820513	4631.282051	4523.076923	4022.051282	4101.025641	4517.948718	4440.512821	4268.717949	3958.461538	1735.000000	1678.000000	120.970000	0.000000	0.000000	0.000000	0.000000	1	1	0	0	0	0	0	0	0	0	0	0	0	0	0	0
4.000000	4358.461538	4386.666667	4406.666667	3714.871795	4384.615385	4610.769231	4629.230769	4524.102564	4024.102564	4101.025641	4520.000000	4441.025641	4267.179487	3958.974359	1736.000000	1677.000000	120.986000	0.000000	0.000000	0.000000	0.000000	1	1	0	0	0	0	0	0	0	0	0	0	0	0	0	0
5.000000	4358.974359	4389.230769	4406.153846	3714.871795	4385.641026	4610.769231	4631.794872	4523.076923	4025.641026	4102.564103	4520.000000	4441.025641	4267.692308	3962.051282	1734.000000	1678.000000	120.986000	0.000000	0.000000	0.000000	0.000000	1	1	0	0	0	0	0	0	0	0	0	0	0	0	0	0
6.000000	4357.948718	4390.769231	4406.666667	3713.846154	4383.076923	4612.820513	4632.307692	4523.076923	4024.102564	4100.512821	4520.000000	4440.000000	4268.717949	3963.076923	1737.000000	1677.000000	121.001000	0.000000	0.000000	0.000000	0.000000	1	1	0	0	0	0	0	0	0	0	0	0	0	0	0	0
7.000000	4356.923077	4389.230769	4409.230769	3712.307692	4382.051282	4610.256410	4630.256410	4525.641026	4024.102564	4098.461538	4519.487179	4440.512821	4269.230769	3959.487179	1734.000000	1677.000000	121.001000	0.000000	0.000000	0.000000	0.000000	1	1	0	0	0	0	0	0	0	0	0	0	0	0	0	0
8.000000	4358.974359	4388.205128	4408.717949	3713.846154	4382.564103	4607.692308	4630.256410	4526.153846	4024.102564	4101.025641	4517.948718	4440.000000	4268.717949	3958.974359	1735.000000	1678.000000	121.017000	0.000000	0.000000	0.000000	0.000000	1	1	0	0	0	0	0	0	0	0	0	0	0	0	0	0
9.000000	4360.512821	4388.205128	4406.666667	3714.871795	4382.051282	4610.256410	4632.307692	4524.615385	4022.564103	4101.538462	4516.923077	4440.000000	4268.205128	3956.410256	1735.000000	1677.000000	121.017000	0.000000	0.000000	0.000000	0.000000	1	1	0	0	0	0	0	0	0	0	0	0	0	0	0	0
10.000000	4360.000000	4388.717949	4405.128205	3714.871795	4381.025641	4612.307692	4632.307692	4524.102564	4025.128205	4097.435897	4518.974359	4441.025641	4269.230769	3958.461538	1735.000000	1678.000000	121.033000	0.000000	0.000000	0.000000	0.000000	1	1	0	0	0	0	0	0	0	0	0	0	0	0	0	0
11.000000	4358.461538	4388.205128	4406.666667	3715.897436	4383.076923	4612.307692	4630.256410	4526.666667	4024.102564	4097.435897	4520.000000	4442.564103	4267.692308	3960.000000	1735.000000	1677.000000	121.033000	0.000000	0.000000	0.000000	0.000000	1	1	0	0	0	0	0	0	0	0	0	0	0	0	0	0
12.000000	4358.461538	4388.717949	4407.179487	3715.384615	4384.102564	4611.794872	4630.256410	4527.179487	4020.512821	4101.538462	4520.512821	4442.051282	4265.641026	3961.025641	1734.000000	1678.000000	121.048000	0.000000	0.000000	0.000000	0.000000	1	1	0	0	0	0	0	0	0	0	0	0	0	0	0	0
13.000000	4358.974359	4391.794872	4407.692308	3712.820513	4383.076923	4611.282051	4632.820513	4524.615385	4025.641026	4103.076923	4517.948718	4443.076923	4267.179487	3961.025641	1735.000000	1677.000000	121.048000	0.000000	0.000000	0.000000	0.000000	1	1	0	0	0	0	0	0	0	0	0	0	0	0	0	0
14.000000	4358.974359	4391.794872	4408.205128	3711.794872	4383.589744	4611.282051	4633.846154	4523.589744	4030.256410	4103.589744	4518.461538	4441.025641	4269.743590	3961.538462	1734.000000	1677.000000	121.068000	0.000000	0.000000	0.000000	0.000000	1	1	0	0	0	0	0	0	0	0	0	0	0	0	0	0
15.000000	4356.410256	4388.205128	4409.743590	3713.846154	4382.564103	4612.307692	4633.333333	4523.076923	4025.128205	4104.102564	4519.487179	4437.435897	4268.205128	3957.948718	1735.000000	1678.000000	121.068000	0.000000	0.000000	0.000000	0.000000	1	1	0	0	0	0	0	0	0	0	0	0	0	0	0	0
16.000000	4355.897436	4389.230769	4408.717949	3715.384615	4382.564103	4610.769231	4633.846154	4521.025641	4021.538462	4103.589744	4518.461538	4438.974359	4268.205128	3956.410256	1735.000000	1678.000000	121.068000	0.000000	0.000000	0.000000	0.000000	1	1	0	0	0	0	0	0	0	0	0	0	0	0	0	0
17.000000	4358.461538	4390.256410	4406.153846	3713.846154	4383.589744	4609.230769	4633.846154	4521.025641	4026.666667	4103.589744	4516.410256	4443.589744	4269.230769	3958.461538	1735.000000	1677.000000	121.084000	0.000000	0.000000	0.000000	0.000000	1	1	0	0	0	0	0	0	0	0	0	0	0	0	0	0
18.000000	4360.512821	4388.205128	4406.153846	3710.256410	4383.589744	4611.282051	4633.333333	4523.076923	4028.717949	4102.564103	4517.435897	4441.538462	4268.205128	3957.435897	1734.000000	1677.000000	121.099000	0.000000	0.000000	0.000000	0.000000	1	1	0	0	0	0	0	0	0	0	0	0	0	0	0	0
19.000000	4359.487179	4387.179487	4405.641026	3711.794872	4382.051282	4612.307692	4632.307692	4525.641026	4025.641026	4102.564103	4518.974359	4437.435897	4266.153846	3958.461538	1735.000000	1679.000000	121.099000	0.000000	0.000000	0.000000	0.000000	1	1	0	0	0	0	0	0	0	0	0	0	0	0	0	0
20.000000	4357.435897	4387.692308	4404.102564	3713.846154	4382.051282	4611.282051	4630.769231	4526.666667	4025.641026	4104.102564	4517.948718	4440.512821	4267.179487	3961.025641	1736.000000	1676.000000	121.115000	0.000000	0.000000	0.000000	0.000000	1	1	0	0	0	0	0	0	0	0	0	0	0	0	0	0
21.000000	4357.948718	4389.743590	4406.666667	3713.846154	4383.076923	4610.256410	4626.666667	4524.615385	4025.641026	4101.025641	4517.948718	4442.564103	4269.743590	3961.538462	1734.000000	1678.000000	121.115000	0.000000	0.000000	0.000000	0.000000	1	1	0	0	0	0	0	0	0	0	0	0	0	0	0	0
22.000000	4359.487179	4391.282051	4410.256410	3713.846154	4382.051282	4610.769231	4626.153846	4526.153846	4025.128205	4096.923077	4516.923077	4441.025641	4268.205128	3957.435897	1735.000000	1677.000000	121.115000	0.000000	0.000000	0.000000	0.000000	1	1	0	0	0	0	0	0	0	0	0	0	0	0	0	0
23.000000	4359.487179	4390.256410	4406.153846	3716.410256	4382.564103	4610.256410	4628.717949	4527.179487	4026.153846	4100.000000	4516.923077	4438.461538	4269.230769	3959.487179	1734.000000	1677.000000	121.131000	0.000000	0.000000	0.000000	0.000000	1	1	0	0	0	0	0	0	0	0	0	0	0	0	0	0
24.000000	4357.948718	4389.230769	4404.102564	3715.384615	4383.076923	4610.256410	4629.230769	4521.025641	4024.615385	4105.641026	4516.923077	4438.461538	4271.282051	3960.512821	1735.000000	1677.000000	121.146000	0.000000	0.000000	0.000000	0.000000	1	1	0	0	0	0	0	0	0	0	0	0	0	0	0	0
25.000000	4357.948718	4390.769231	4406.666667	3711.794872	4382.051282	4611.282051	4629.743590	4521.025641	4023.076923	4103.076923	4517.435897	4440.000000	4269.230769	3961.025641	1734.000000	1677.000000	121.146000	0.000000	0.000000	0.000000	0.000000	1	1	0	0	0	0	0	0	0	0	0	0	0	0	0	0
26.000000	4360.000000	4390.256410	4405.128205	3712.820513	4381.538462	4612.820513	4631.794872	4528.205128	4030.256410	4097.948718	4516.410256	4440.512821	4268.205128	3958.461538	1735.000000	1677.000000	121.162000	0.000000	0.000000	0.000000	0.000000	1	1	0	0	0	0	0	0	0	0	0	0	0	0	0	0
27.000000	4359.487179	4388.717949	4406.153846	3716.410256	4382.564103	4610.769231	4630.769231	4527.692308	4031.282051	4100.512821	4516.410256	4439.487179	4270.769231	3958.461538	1735.000000	1678.000000	121.162000	0.000000	0.000000	0.000000	0.000000	1	1	0	0	0	0	0	0	0	0	0	0	0	0	0	0
28.000000	4357.948718	4388.717949	4411.282051	3715.384615	4383.076923	4608.717949	4628.205128	4522.051282	4021.538462	4104.615385	4518.461538	4442.051282	4270.769231	3956.923077	1735.000000	1677.000000	121.162000	0.000000	0.000000	0.000000	0.000000	1	1	0	0	0	0	0	0	0	0	0	0	0	0	0	0
29.000000	4358.974359	4388.717949	4408.717949	3715.384615	4382.564103	4608.717949	4630.256410	4523.076923	4020.000000	4103.589744	4519.487179	4442.564103	4267.179487	3958.974359	1734.000000	1678.000000	121.182000	0.000000	0.000000	0.000000	0.000000	1	1	0	0	0	0	0	0	0	0	0	0	0	0	0	0
30.000000	4360.512821	4388.205128	4406.153846	3715.897436	4382.051282	4610.769231	4631.794872	4527.692308	4027.179487	4102.564103	4517.948718	4440.000000	4264.615385	3961.025641	1735.000000	1677.000000	121.182000	0.000000	0.000000	0.000000	0.000000	1	1	0	0	0	0	0	0	0	0	0	0	0	0	0	0
31.000000	4359.487179	4388.205128	4407.692308	3714.358974	4381.538462	4612.307692	4630.256410	4526.666667	4026.666667	4103.589744	4519.487179	4440.512821	4265.641026	3961.025641	1735.000000	1678.000000	121.198000	0.000000	0.000000	0.000000	0.000000	1	1	0	0	0	0	0	0	0	0	0	0	0	0	0	0
32.000000	4358.974359	4389.230769	4407.692308	3712.820513	4382.564103	4612.307692	4629.743590	4523.589744	4022.564103	4104.102564	4521.025641	4442.051282	4268.205128	3959.487179	1735.000000	1677.000000	121.198000	0.000000	0.000000	0.000000	0.000000	1	1	0	0	0	0	0	0	0	0	0	0	0	0	0	0
33.000000	4361.025641	4388.717949	4405.641026	3713.846154	4383.589744	4611.282051	4628.717949	4525.641026	4022.564103	4103.589744	4518.461538	4439.487179	4269.230769	3959.487179	1734.000000	1677.000000	121.214000	0.000000	0.000000	0.000000	0.000000	1	1	0	0	0	0	0	0	0	0	0	0	0	0	0	0
34.000000	4361.025641	4387.179487	4407.692308	3713.846154	4383.589744	4609.743590	4626.666667	4526.153846	4027.179487	4104.102564	4516.410256	4439.487179	4266.666667	3959.487179	1735.000000	1677.000000	121.214000	0.000000	0.000000	0.000000	0.000000	1	1	0	0	0	0	0	0	0	0	0	0	0	0	0	0
35.000000	4360.000000	4388.205128	4409.230769	3712.820513	4384.615385	4611.282051	4630.769231	4521.538462	4031.794872	4103.589744	4518.461538	4441.538462	4266.666667	3960.512821	1734.000000	1677.000000	121.229000	0.000000	0.000000	0.000000	0.000000	1	1	0	0	0	0	0	0	0	0	0	0	0	0	0	0
36.000000	4359.487179	4389.230769	4405.641026	3713.846154	4384.102564	4612.820513	4633.846154	4523.589744	4027.179487	4103.589744	4520.000000	4441.538462	4269.230769	3962.051282	1735.000000	1678.000000	121.229000	0.000000	0.000000	0.000000	0.000000	1	1	0	0	0	0	0	0	0	0	0	0	0	0	0	0
37.000000	4359.487179	4389.230769	4405.128205	3714.871795	4382.051282	4611.794872	4629.743590	4531.282051	4020.000000	4103.589744	4517.435897	4441.025641	4270.769231	3960.512821	1735.000000	1677.000000	121.245000	0.000000	0.000000	0.000000	0.000000	1	1	0	0	0	0	0	0	0	0	0	0	0	0	0	0
38.000000	4361.538462	4390.769231	4407.179487	3715.384615	4382.051282	4609.230769	4629.230769	4528.205128	4023.076923	4103.589744	4517.948718	4439.487179	4266.666667	3961.538462	1736.000000	1678.000000	121.245000	0.000000	0.000000	0.000000	0.000000	1	1	0	0	0	0	0	0	0	0	0	0	0	0	0	0
39.000000	4361.538462	4389.743590	4405.641026	3714.358974	4383.076923	4609.743590	4633.333333	4521.025641	4028.205128	4103.589744	4517.948718	4438.974359	4262.051282	3960.000000	1735.000000	1677.000000	121.260000	0.000000	0.000000	0.000000	0.000000	1	1	0	0	0	0	0	0	0	0	0	0	0	0	0	0
40.000000	4359.487179	4389.743590	4405.128205	3711.794872	4382.564103	4612.820513	4631.282051	4522.051282	4027.692308	4103.589744	4516.923077	4440.512821	4266.153846	3959.487179	1733.000000	1678.000000	121.260000	0.000000	0.000000	0.000000	0.000000	1	1	0	0	0	0	0	0	0	0	0	0	0	0	0	0
41.000000	4358.974359	4391.282051	4409.230769	3711.794872	4383.589744	4613.846154	4625.641026	4527.692308	4024.102564	4104.102564	4516.923077	4442.564103	4268.205128	3959.487179	1735.000000	1677.000000	121.276000	0.000000	0.000000	0.000000	0.000000	1	1	0	0	0	0	0	0	0	0	0	0	0	0	0	0
42.000000	4361.538462	4391.794872	4407.692308	3714.358974	4384.102564	4611.794872	4627.692308	4526.666667	4024.102564	4103.589744	4518.461538	4441.538462	4266.153846	3963.076923	1734.000000	1677.000000	121.276000	0.000000	0.000000	0.000000	0.000000	1	1	0	0	0	0	0	0	0	0	0	0	0	0	0	0
43.000000	4358.974359	4387.179487	4404.615385	3713.333333	4383.076923	4612.307692	4633.846154	4522.564103	4030.256410	4103.589744	4516.923077	4441.025641	4267.692308	3961.025641	1735.000000	1677.000000	121.292000	0.000000	0.000000	0.000000	0.000000	1	1	0	0	0	0	0	0	0	0	0	0	0	0	0	0
44.000000	4357.948718	4385.128205	4406.666667	3711.794872	4383.076923	4614.358974	4633.333333	4522.564103	4031.282051	4104.102564	4517.435897	4441.025641	4268.717949	3960.512821	1735.000000	1677.000000	121.297000	0.000000	0.000000	0.000000	0.000000	1	1	0	0	0	0	0	0	0	0	0	0	0	0	0	0
45.000000	4360.512821	4389.230769	4406.666667	3713.846154	4384.102564	4612.820513	4631.282051	4526.153846	4023.589744	4103.076923	4517.948718	4441.538462	4266.666667	3959.487179	1736.000000	1677.000000	121.297000	0.000000	0.000000	0.000000	0.000000	1	1	0	0	0	0	0	0	0	0	0	0	0	0	0	0
46.000000	4358.461538	4390.769231	4404.102564	3715.384615	4383.076923	4611.282051	4632.307692	4526.153846	4021.025641	4098.461538	4516.923077	4437.948718	4267.692308	3958.974359	1735.000000	1677.000000	121.312000	0.000000	0.000000	0.000000	0.000000	1	1	0	0	0	0	0	0	0	0	0	0	0	0	0	0
47.000000	4355.384615	4389.743590	4406.666667	3713.333333	4383.589744	4612.307692	4633.333333	4522.564103	4025.641026	4097.948718	4516.923077	4437.948718	4270.769231	3957.948718	1736.000000	1678.000000	121.312000	0.000000	0.000000	0.000000	0.000000	1	1	0	0	0	0	0	0	0	0	0	0	0	0	0	0
48.000000	4359.487179	4388.717949	4410.256410	3713.846154	4384.615385	4612.307692	4632.307692	4523.076923	4024.615385	4101.538462	4517.948718	4442.051282	4270.256410	3958.461538	1735.000000	1677.000000	121.328000	0.000000	0.000000	0.000000	0.000000	1	1	0	0	0	0	0	0	0	0	0	0	0	0	0	0
49.000000	4361.538462	4387.179487	4409.230769	3714.358974	4384.102564	4610.769231	4630.256410	4527.179487	4021.538462	4101.025641	4515.384615	4442.564103	4268.717949	3960.000000	1735.000000	1678.000000	121.328000	0.000000	0.000000	0.000000	0.000000	1	1	0	0	0	0	0	0	0	0	0	0	0	0	0	0
50.000000	4359.487179	4388.717949	4406.666667	3712.307692	4384.102564	4610.769231	4629.230769	4527.179487	4024.615385	4100.512821	4515.897436	4438.974359	4269.230769	3962.051282	1735.000000	1677.000000	121.343000	0.000000	0.000000	0.000000	0.000000	1	1	0	0	0	0	0	0	0	0	0	0	0	0	0	0
51.000000	4358.974359	4390.256410	4407.179487	3713.333333	4383.589744	4611.794872	4631.282051	4525.128205	4025.128205	4100.000000	4518.461538	4437.435897	4269.230769	3962.051282	1735.000000	1678.000000	121.343000	0.000000	0.000000	0.000000	0.000000	1	1	0	0	0	0	0	0	0	0	0	0	0	0	0	0
52.000000	4359.487179	4386.666667	4408.717949	3713.333333	4383.076923	4612.307692	4633.333333	4524.615385	4023.076923	4098.974359	4517.435897	4439.487179	4268.205128	3960.512821	1736.000000	1676.000000	121.359000	0.000000	0.000000	0.000000	0.000000	1	1	0	0	0	0	0	0	0	0	0	0	0	0	0	0
53.000000	4360.000000	4386.666667	4405.641026	3712.307692	4382.564103	4610.256410	4631.794872	4524.615385	4026.666667	4102.051282	4517.435897	4444.102564	4267.692308	3961.538462	1734.000000	1677.000000	121.359000	0.000000	0.000000	0.000000	0.000000	1	1	0	0	0	0	0	0	0	0	0	0	0	0	0	0
54.000000	4359.487179	4392.820513	4404.615385	3713.333333	4381.538462	4610.769231	4629.230769	4524.615385	4025.641026	4104.615385	4518.974359	4443.589744	4268.205128	3961.025641	1736.000000	1678.000000	121.375000	0.000000	0.000000	0.000000	0.000000	1	1	0	0	0	0	0	0	0	0	0	0	0	0	0	0
55.000000	4358.974359	4391.282051	4406.666667	3714.871795	4381.538462	4613.846154	4630.256410	4525.641026	4022.051282	4102.564103	4516.923077	4437.948718	4268.205128	3962.051282	1736.000000	1677.000000	121.375000	0.000000	0.000000	0.000000	0.000000	1	1	0	0	0	0	0	0	0	0	0	0	0	0	0	0
56.000000	4358.974359	4385.128205	4407.692308	3714.871795	4382.051282	4613.333333	4632.307692	4525.641026	4022.564103	4104.102564	4514.358974	4437.948718	4265.641026	3960.512821	1734.000000	1677.000000	121.390000	0.000000	0.000000	0.000000	0.000000	1	1	0	0	0	0	0	0	0	0	0	0	0	0	0	0
57.000000	4360.000000	4387.179487	4407.692308	3714.871795	4382.564103	4609.743590	4630.256410	4524.615385	4021.025641	4104.615385	4517.435897	4440.000000	4266.666667	3960.000000	1735.000000	1678.000000	121.390000	0.000000	0.000000	0.000000	0.000000	1	1	0	0	0	0	0	0	0	0	0	0	0	0	0	0
58.000000	4360.512821	4389.743590	4408.205128	3714.871795	4382.564103	4610.769231	4629.743590	4525.128205	4018.461538	4100.512821	4515.897436	4439.487179	4268.205128	3958.461538	1735.000000	1678.000000	121.410000	0.000000	0.000000	0.000000	0.000000	1	1	0	0	0	0	0	0	0	0	0	0	0	0	0	0
59.000000	4361.025641	4389.230769	4407.179487	3714.358974	4383.076923	4612.307692	4630.769231	4526.666667	4024.615385	4100.512821	4514.358974	4438.974359	4266.153846	3959.487179	1734.000000	1677.000000	121.410000	0.000000	0.000000	0.000000	0.000000	1	1	0	0	0	0	0	0	0	0	0	0	0	0	0	0
60.000000	4360.000000	4389.230769	4408.717949	3712.820513	4383.589744	4611.794872	4628.205128	4527.179487	4026.666667	4101.025641	4514.871795	4439.487179	4264.615385	3958.974359	1735.000000	1678.000000	121.426000	0.000000	0.000000	0.000000	0.000000	1	1	0	0	0	0	0	0	0	0	0	0	0	0	0	0
61.000000	4359.487179	4391.282051	4408.205128	3712.307692	4384.102564	4609.743590	4627.692308	4526.666667	4023.076923	4100.000000	4516.923077	4438.974359	4268.717949	3961.025641	1735.000000	1677.000000	121.426000	0.000000	0.000000	0.000000	0.000000	1	1	0	0	0	0	0	0	0	0	0	0	0	0	0	0
62.000000	4358.974359	4390.769231	4405.128205	3713.846154	4382.051282	4609.743590	4631.794872	4526.153846	4025.641026	4103.076923	4517.948718	4440.512821	4270.769231	3958.461538	1734.000000	1678.000000	121.442000	0.000000	0.000000	0.000000	0.000000	1	1	0	0	0	0	0	0	0	0	0	0	0	0	0	0
63.000000	4358.974359	4388.717949	4405.128205	3715.384615	4381.025641	4610.256410	4631.282051	4524.615385	4025.128205	4106.153846	4520.000000	4440.000000	4269.743590	3956.923077	1736.000000	1677.000000	121.442000	0.000000	0.000000	0.000000	0.000000	1	1	0	0	0	0	0	0	0	0	0	0	0	0	0	0
64.000000	4358.461538	4389.230769	4408.205128	3714.358974	4383.076923	4610.769231	4630.769231	4525.128205	4019.487179	4101.538462	4520.512821	4440.000000	4268.205128	3958.974359	1734.000000	1677.000000	121.457000	0.000000	0.000000	0.000000	0.000000	1	1	0	0	0	0	0	0	0	0	0	0	0	0	0	0
65.000000	4359.487179	4390.769231	4407.692308	3714.358974	4382.564103	4612.820513	4633.846154	4527.179487	4022.051282	4099.487179	4518.461538	4441.538462	4267.692308	3960.000000	1736.000000	1678.000000	121.457000	0.000000	0.000000	0.000000	0.000000	1	1	0	0	0	0	0	0	0	0	0	0	0	0	0	0
66.000000	4360.512821	4388.717949	4406.666667	3714.871795	4381.538462	4614.871795	4631.794872	4527.692308	4024.102564	4103.589744	4518.461538	4438.974359	4269.230769	3958.974359	1735.000000	1677.000000	121.473000	0.000000	0.000000	0.000000	0.000000	1	1	0	0	0	0	0	0	0	0	0	0	0	0	0	0
67.000000	4360.512821	4385.641026	4407.179487	3713.846154	4383.589744	4612.820513	4629.230769	4526.153846	4023.076923	4104.615385	4518.974359	4436.923077	4268.205128	3958.461538	1735.000000	1678.000000	121.473000	0.000000	0.000000	0.000000	0.000000	1	1	0	0	0	0	0	0	0	0	0	0	0	0	0	0
68.000000	4360.512821	4387.692308	4407.179487	3713.846154	4384.102564	4610.256410	4630.769231	4525.641026	4025.641026	4103.589744	4518.974359	4439.487179	4267.179487	3960.512821	1735.000000	1677.000000	121.488000	0.000000	0.000000	0.000000	0.000000	1	1	0	0	0	0	0	0	0	0	0	0	0	0	0	0
69.000000	4360.512821	4390.256410	4408.717949	3715.897436	4383.076923	4610.256410	4632.820513	4526.153846	4027.692308	4103.589744	4518.974359	4441.025641	4268.717949	3958.974359	1734.000000	1678.000000	121.488000	0.000000	0.000000	0.000000	0.000000	1	1	0	0	0	0	0	0	0	0	0	0	0	0	0	0
70.000000	4361.025641	4388.717949	4410.256410	3715.897436	4382.564103	4611.282051	4631.794872	4526.666667	4023.076923	4104.615385	4521.025641	4438.974359	4269.743590	3961.025641	1735.000000	1677.000000	121.504000	0.000000	0.000000	0.000000	0.000000	1	1	0	0	0	0	0	0	0	0	0	0	0	0	0	0
71.000000	4359.487179	4389.230769	4409.230769	3711.794872	4383.076923	4612.307692	4629.743590	4528.205128	4021.538462	4103.589744	4521.025641	4439.487179	4268.205128	3962.051282	1735.000000	1677.000000	121.504000	0.000000	0.000000	0.000000	0.000000	1	1	0	0	0	0	0	0	0	0	0	0	0	0	0	0
72.000000	4358.974359	4391.794872	4408.205128	3712.307692	4383.076923	4610.769231	4629.230769	4527.692308	4026.666667	4103.589744	4517.435897	4440.000000	4268.205128	3961.025641	1735.000000	1676.000000	121.520000	0.000000	0.000000	0.000000	0.000000	1	1	0	0	0	0	0	0	0	0	0	0	0	0	0	0
73.000000	4359.487179	4390.769231	4408.205128	3714.358974	4383.076923	4609.743590	4632.307692	4527.179487	4026.153846	4103.076923	4518.461538	4440.512821	4267.692308	3956.923077	1734.000000	1678.000000	121.524000	0.000000	0.000000	0.000000	0.000000	1	1	0	0	0	0	0	0	0	0	0	0	0	0	0	0
74.000000	4360.000000	4388.205128	4406.153846	3713.333333	4382.051282	4612.820513	4633.333333	4525.641026	4023.076923	4102.564103	4522.051282	4441.538462	4266.666667	3958.974359	1736.000000	1677.000000	121.524000	0.000000	0.000000	0.000000	0.000000	1	1	0	0	0	0	0	0	0	0	0	0	0	0	0	0
75.000000	4358.974359	4389.230769	4406.153846	3711.282051	4381.538462	4613.846154	4631.794872	4525.641026	4024.615385	4103.076923	4518.461538	4440.000000	4268.205128	3961.025641	1734.000000	1677.000000	121.540000	0.000000	0.000000	0.000000	0.000000	1	1	0	0	0	0	0	0	0	0	0	0	0	0	0	0
76.000000	4359.487179	4388.717949	4409.743590	3712.820513	4382.564103	4611.282051	4632.307692	4526.153846	4023.589744	4102.564103	4516.410256	4437.435897	4269.230769	3961.538462	1736.000000	1678.000000	121.540000	0.000000	0.000000	0.000000	0.000000	1	1	0	0	0	0	0	0	0	0	0	0	0	0	0	0
77.000000	4359.487179	4385.128205	4409.230769	3714.358974	4382.564103	4610.769231	4632.820513	4526.153846	4020.000000	4102.564103	4516.923077	4441.025641	4268.717949	3960.000000	1735.000000	1676.000000	121.555000	0.000000	0.000000	0.000000	0.000000	1	1	0	0	0	0	0	0	0	0	0	0	0	0	0	0
78.000000	4359.487179	4385.641026	4405.641026	3712.820513	4382.051282	4611.282051	4629.743590	4525.128205	4024.615385	4103.076923	4517.948718	4441.025641	4268.717949	3960.000000	1734.000000	1678.000000	121.555000	0.000000	0.000000	0.000000	0.000000	1	1	0	0	0	0	0	0	0	0	0	0	0	0	0	0
79.000000	4357.948718	4388.717949	4404.102564	3713.333333	4383.076923	4612.820513	4629.743590	4524.615385	4028.205128	4102.564103	4517.948718	4437.948718	4269.230769	3960.512821	1736.000000	1677.000000	121.571000	0.000000	0.000000	0.000000	0.000000	1	1	0	0	0	0	0	0	0	0	0	0	0	0	0	0
80.000000	4358.974359	4389.230769	4403.589744	3712.820513	4384.615385	4613.333333	4632.307692	4525.128205	4023.076923	4102.564103	4519.487179	4440.512821	4268.717949	3960.512821	1735.000000	1678.000000	121.571000	0.000000	0.000000	0.000000	0.000000	1	1	0	0	0	0	0	0	0	0	0	0	0	0	0	0
81.000000	4360.512821	4388.205128	4403.589744	3712.820513	4383.589744	4610.256410	4630.256410	4525.641026	4025.128205	4103.076923	4518.974359	4443.589744	4270.256410	3958.974359	1735.000000	1677.000000	121.587000	0.000000	0.000000	0.000000	0.000000	1	1	0	0	0	0	0	0	0	0	0	0	0	0	0	0
82.000000	4358.974359	4388.717949	4407.692308	3714.871795	4383.076923	4609.743590	4628.717949	4525.641026	4031.282051	4102.564103	4517.948718	4440.512821	4271.794872	3955.897436	1736.000000	1678.000000	121.587000	0.000000	0.000000	0.000000	0.000000	1	1	0	0	0	0	0	0	0	0	0	0	0	0	0	0
83.000000	4358.974359	4390.256410	4408.205128	3715.384615	4383.076923	4613.333333	4631.794872	4526.153846	4027.692308	4103.076923	4517.948718	4439.487179	4268.205128	3956.923077	1735.000000	1677.000000	121.602000	0.000000	0.000000	0.000000	0.000000	1	1	0	0	0	0	0	0	0	0	0	0	0	0	0	0
84.000000	4360.512821	4389.230769	4406.153846	3712.307692	4381.538462	4614.871795	4633.846154	4527.179487	4023.589744	4102.564103	4516.410256	4441.025641	4266.153846	3961.538462	1735.000000	1678.000000	121.602000	0.000000	0.000000	0.000000	0.000000	1	1	0	0	0	0	0	0	0	0	0	0	0	0	0	0
85.000000	4360.000000	4388.205128	4407.692308	3713.846154	4382.051282	4613.333333	4632.307692	4526.666667	4028.205128	4103.076923	4517.948718	4438.974359	4269.230769	3962.051282	1735.000000	1677.000000	121.618000	0.000000	0.000000	0.000000	0.000000	1	1	0	0	0	0	0	0	0	0	0	0	0	0	0	0
86.000000	4358.974359	4390.256410	4408.205128	3716.410256	4383.076923	4612.307692	4631.282051	4525.641026	4029.230769	4102.564103	4518.974359	4438.974359	4268.205128	3958.461538	1734.000000	1678.000000	121.618000	0.000000	0.000000	0.000000	0.000000	1	1	0	0	0	0	0	0	0	0	0	0	0	0	0	0
87.000000	4358.974359	4390.769231	4404.615385	3713.846154	4382.564103	4610.256410	4632.820513	4526.666667	4026.666667	4103.076923	4518.461538	4442.564103	4266.666667	3960.512821	1735.000000	1677.000000	121.638000	0.000000	0.000000	0.000000	0.000000	1	1	0	0	0	0	0	0	0	0	0	0	0	0	0	0
88.000000	4357.435897	4387.692308	4406.153846	3712.820513	4383.589744	4610.256410	4632.307692	4526.153846	4030.256410	4102.564103	4517.435897	4442.051282	4269.743590	3961.538462	1735.000000	1678.000000	121.638000	0.000000	0.000000	0.000000	0.000000	1	1	0	0	0	0	0	0	0	0	0	0	0	0	0	0
89.000000	4360.000000	4387.692308	4410.256410	3715.897436	4384.615385	4613.333333	4630.256410	4525.641026	4028.205128	4102.564103	4517.948718	4437.435897	4270.769231	3961.025641	1735.000000	1677.000000	121.654000	0.000000	0.000000	0.000000	0.000000	1	1	0	0	0	0	0	0	0	0	0	0	0	0	0	0
90.000000	4362.051282	4387.692308	4408.717949	3714.871795	4383.076923	4613.846154	4630.256410	4526.666667	4022.051282	4103.589744	4516.923077	4437.948718	4268.205128	3959.487179	1735.000000	1678.000000	121.654000	0.000000	0.000000	0.000000	0.000000	1	1	0	0	0	0	0	0	0	0	0	0	0	0	0	0
91.000000	4361.025641	4387.179487	4405.641026	3713.333333	4381.025641	4609.230769	4632.307692	4526.153846	4023.589744	4102.564103	4518.461538	4438.974359	4268.717949	3962.051282	1736.000000	1677.000000	121.669000	0.000000	0.000000	0.000000	0.000000	1	1	0	0	0	0	0	0	0	0	0	0	0	0	0	0
92.000000	4360.512821	4386.666667	4407.179487	3714.871795	4383.076923	4608.205128	4633.846154	4524.615385	4027.692308	4102.564103	4520.512821	4440.000000	4268.717949	3960.000000	1734.000000	1678.000000	121.669000	0.000000	0.000000	0.000000	0.000000	1	1	0	0	0	0	0	0	0	0	0	0	0	0	0	0
93.000000	4361.538462	4386.666667	4409.230769	3716.923077	4384.615385	4611.282051	4631.794872	4524.615385	4025.128205	4105.128205	4520.000000	4439.487179	4267.179487	3958.974359	1735.000000	1677.000000	121.685000	0.000000	0.000000	0.000000	0.000000	1	1	0	0	0	0	0	0	0	0	0	0	0	0	0	0
94.000000	4361.025641	4389.230769	4409.230769	3715.897436	4383.076923	4611.794872	4631.794872	4525.641026	4022.564103	4104.615385	4515.384615	4439.487179	4268.205128	3955.897436	1734.000000	1677.000000	121.685000	0.000000	0.000000	0.000000	0.000000	1	1	0	0	0	0	0	0	0	0	0	0	0	0	0	0
95.000000	4358.974359	4390.769231	4407.179487	3714.358974	4383.589744	4612.307692	4630.769231	4526.153846	4024.615385	4098.461538	4515.897436	4440.000000	4267.692308	3955.897436	1736.000000	1678.000000	121.701000	0.000000	0.000000	0.000000	0.000000	1	1	0	0	0	0	0	0	0	0	0	0	0	0	0	0
96.000000	4356.923077	4388.205128	4408.205128	3714.871795	4384.102564	4613.333333	4626.666667	4526.666667	4030.256410	4095.897436	4518.461538	4442.051282	4265.128205	3959.487179	1735.000000	1676.000000	121.701000	0.000000	0.000000	0.000000	0.000000	1	1	0	0	0	0	0	0	0	0	0	0	0	0	0	0
97.000000	4358.974359	4388.717949	4407.692308	3714.358974	4382.051282	4611.794872	4628.205128	4525.641026	4032.307692	4100.512821	4518.461538	4441.538462	4266.666667	3962.051282	1734.000000	1678.000000	121.716000	0.000000	0.000000	0.000000	0.000000	1	1	0	0	0	0	0	0	0	0	0	0	0	0	0	0
98.000000	4360.512821	4391.794872	4407.692308	3711.794872	4383.076923	4610.256410	4632.307692	4527.179487	4025.128205	4105.641026	4516.923077	4440.512821	4270.769231	3962.051282	1735.000000	1677.000000	121.716000	0.000000	0.000000	0.000000	0.000000	1	1	0	0	0	0	0	0	0	0	0	0	0	0	0	0
99.000000	4358.461538	4391.282051	4408.717949	3712.307692	4385.128205	4610.769231	4630.769231	4529.743590	4023.589744	4105.128205	4515.384615	4441.538462	4270.256410	3960.000000	1734.000000	1677.000000	121.732000	0.000000	0.000000	0.000000	0.000000	1	1	0	0	0	0	0	0	0	0	0	0	0	0	0	0
100.000000	4358.974359	4389.230769	4407.179487	3715.384615	4383.076923	4611.282051	4629.743590	4527.179487	4029.230769	4100.512821	4516.410256	4441.025641	4269.743590	3959.487179	1735.000000	1677.000000	121.732000	0.000000	0.000000	0.000000	0.000000	1	1	0	0	0	0	0	0	0	0	0	0	0	0	0	0
101.000000	4360.000000	4388.717949	4405.641026	3714.358974	4382.564103	4610.769231	4632.820513	4525.641026	4026.153846	4099.487179	4518.974359	4439.487179	4269.230769	3958.974359	1735.000000	1678.000000	121.748000	0.000000	0.000000	0.000000	0.000000	1	1	0	0	0	0	0	0	0	0	0	0	0	0	0	0
102.000000	4358.461538	4390.256410	4407.179487	3714.358974	4384.615385	4610.256410	4632.820513	4524.615385	4020.000000	4100.512821	4519.487179	4438.974359	4269.230769	3961.025641	1735.000000	1676.000000	121.752000	0.000000	0.000000	0.000000	0.000000	1	1	0	0	0	0	0	0	0	0	0	0	0	0	0	0
103.000000	4357.948718	4391.282051	4409.230769	3714.871795	4384.102564	4612.820513	4631.794872	4523.589744	4024.102564	4098.461538	4516.923077	4438.974359	4269.230769	3958.974359	1734.000000	1677.000000	121.752000	0.000000	0.000000	0.000000	0.000000	1	1	0	0	0	0	0	0	0	0	0	0	0	0	0	0
104.000000	4361.025641	4389.230769	4407.179487	3712.820513	4383.589744	4614.358974	4631.794872	4522.564103	4029.743590	4098.974359	4517.435897	4439.487179	4268.717949	3957.435897	1736.000000	1677.000000	121.767000	0.000000	0.000000	0.000000	0.000000	1	1	0	0	0	0	0	0	0	0	0	0	0	0	0	0
105.000000	4362.051282	4385.641026	4407.692308	3711.794872	4382.564103	4613.846154	4631.282051	4525.128205	4024.102564	4103.589744	4516.923077	4441.025641	4267.179487	3958.461538	1734.000000	1677.000000	121.767000	0.000000	0.000000	0.000000	0.000000	1	1	0	0	0	0	0	0	0	0	0	0	0	0	0	0
106.000000	4360.000000	4386.666667	4408.205128	3714.358974	4381.025641	4611.282051	4631.794872	4524.102564	4022.564103	4104.102564	4514.871795	4441.538462	4267.179487	3963.589744	1735.000000	1678.000000	121.783000	0.000000	0.000000	0.000000	0.000000	1	1	0	0	0	0	0	0	0	0	0	0	0	0	0	0
107.000000	4357.435897	4388.205128	4405.128205	3714.871795	4383.076923	4609.230769	4632.307692	4522.564103	4028.717949	4102.051282	4516.410256	4440.512821	4267.692308	3960.512821	1735.000000	1677.000000	121.783000	0.000000	0.000000	0.000000	0.000000	1	1	0	0	0	0	0	0	0	0	0	0	0	0	0	0
108.000000	4358.974359	4388.205128	4404.615385	3713.846154	4384.102564	4609.230769	4629.743590	4524.615385	4030.769231	4103.589744	4520.000000	4436.923077	4267.179487	3958.461538	1735.000000	1678.000000	121.799000	0.000000	0.000000	0.000000	0.000000	1	1	0	0	0	0	0	0	0	0	0	0	0	0	0	0
109.000000	4360.512821	4390.769231	4409.230769	3714.871795	4383.076923	4611.282051	4629.230769	4524.615385	4027.692308	4104.102564	4517.948718	4436.923077	4267.692308	3959.487179	1735.000000	1677.000000	121.799000	0.000000	0.000000	0.000000	0.000000	1	1	0	0	0	0	0	0	0	0	0	0	0	0	0	0
110.000000	4358.974359	4390.769231	4410.256410	3716.923077	4383.589744	4612.307692	4631.282051	4523.076923	4028.717949	4102.564103	4516.923077	4438.974359	4267.692308	3961.538462	1735.000000	1678.000000	121.814000	0.000000	0.000000	0.000000	0.000000	1	1	0	0	0	0	0	0	0	0	0	0	0	0	0	0
111.000000	4358.461538	4388.205128	4406.153846	3715.384615	4383.076923	4612.307692	4632.307692	4526.153846	4031.794872	4103.076923	4519.487179	4439.487179	4268.205128	3958.974359	1735.000000	1677.000000	121.814000	0.000000	0.000000	0.000000	0.000000	1	1	0	0	0	0	0	0	0	0	0	0	0	0	0	0
112.000000	4361.025641	4388.717949	4406.153846	3714.358974	4381.025641	4614.358974	4632.820513	4528.717949	4028.205128	4102.564103	4521.538462	4439.487179	4269.743590	3958.974359	1735.000000	1678.000000	121.830000	0.000000	0.000000	0.000000	0.000000	1	1	0	0	0	0	0	0	0	0	0	0	0	0	0	0
113.000000	4361.025641	4389.230769	4407.692308	3714.871795	4383.076923	4614.358974	4632.820513	4524.615385	4026.666667	4102.564103	4517.948718	4441.538462	4268.205128	3958.461538	1735.000000	1677.000000	121.830000	0.000000	0.000000	0.000000	0.000000	1	1	0	0	0	0	0	0	0	0	0	0	0	0	0	0
114.000000	4359.487179	4388.717949	4405.641026	3713.846154	4385.641026	4612.307692	4632.307692	4522.051282	4028.717949	4103.589744	4515.384615	4440.512821	4266.666667	3958.461538	1735.000000	1678.000000	121.846000	0.000000	0.000000	0.000000	0.000000	1	1	0	0	0	0	0	0	0	0	0	0	0	0	0	0
115.000000	4358.461538	4389.743590	4406.153846	3711.794872	4383.589744	4610.769231	4631.282051	4524.615385	4025.641026	4101.538462	4516.410256	4439.487179	4269.743590	3960.512821	1736.000000	1678.000000	121.846000	0.000000	0.000000	0.000000	0.000000	1	1	0	0	0	0	0	0	0	0	0	0	0	0	0	0
116.000000	4358.974359	4389.743590	4409.743590	3713.333333	4382.564103	4611.794872	4632.307692	4523.076923	4021.538462	4100.000000	4516.923077	4440.000000	4268.205128	3961.025641	1734.000000	1677.000000	121.865000	0.000000	0.000000	0.000000	0.000000	1	1	0	0	0	0	0	0	0	0	0	0	0	0	0	0
117.000000	4359.487179	4389.743590	4407.179487	3713.846154	4382.564103	4611.282051	4632.307692	4523.589744	4023.589744	4099.487179	4517.435897	4437.948718	4266.153846	3962.051282	1735.000000	1678.000000	121.866000	0.000000	0.000000	0.000000	0.000000	1	1	0	0	0	0	0	0	0	0	0	0	0	0	0	0
118.000000	4358.974359	4389.743590	4404.102564	3711.282051	4381.538462	4610.256410	4629.230769	4527.179487	4025.641026	4102.051282	4517.435897	4440.000000	4269.230769	3961.538462	1735.000000	1677.000000	121.881000	0.000000	0.000000	0.000000	0.000000	1	1	0	0	0	0	0	0	0	0	0	0	0	0	0	0
119.000000	4359.487179	4388.717949	4406.153846	3713.333333	4381.538462	4611.282051	4626.666667	4527.179487	4025.641026	4102.564103	4517.435897	4443.076923	4271.282051	3960.512821	1734.000000	1678.000000	121.881000	0.000000	0.000000	0.000000	0.000000	1	1	0	0	0	0	0	0	0	0	0	0	0	0	0	0
120.000000	4358.974359	4387.692308	4408.205128	3715.897436	4382.564103	4611.794872	4630.769231	4526.666667	4030.256410	4101.025641	4518.461538	4441.025641	4268.205128	3958.974359	1736.000000	1677.000000	121.897000	0.000000	0.000000	0.000000	0.000000	1	1	0	0	0	0	0	0	0	0	0	0	0	0	0	0
121.000000	4358.974359	4388.205128	4406.666667	3714.358974	4383.076923	4610.769231	4634.358974	4526.153846	4029.743590	4100.512821	4521.025641	4437.948718	4267.179487	3961.538462	1734.000000	1678.000000	121.897000	0.000000	0.000000	0.000000	0.000000	1	1	0	0	0	0	0	0	0	0	0	0	0	0	0	0
122.000000	4359.487179	4388.717949	4405.128205	3714.358974	4382.051282	4612.307692	4632.820513	4523.076923	4023.076923	4100.000000	4517.948718	4439.487179	4269.230769	3961.025641	1735.000000	1678.000000	121.897000	0.000000	0.000000	0.000000	0.000000	1	1	0	0	0	0	0	0	0	0	0	0	0	0	0	0
123.000000	4358.974359	4389.743590	4404.615385	3715.897436	4381.025641	4613.333333	4632.307692	4521.538462	4021.538462	4101.538462	4516.923077	4440.000000	4268.717949	3960.000000	1735.000000	1677.000000	121.913000	0.000000	0.000000	0.000000	0.000000	1	1	0	0	0	0	0	0	0	0	0	0	0	0	0	0
124.000000	4357.948718	4388.205128	4407.179487	3715.897436	4381.538462	4611.794872	4633.846154	4523.076923	4022.564103	4104.615385	4519.487179	4438.461538	4267.692308	3957.948718	1736.000000	1678.000000	121.928000	0.000000	0.000000	0.000000	0.000000	1	1	0	0	0	0	0	0	0	0	0	0	0	0	0	0
125.000000	4358.461538	4387.179487	4405.641026	3715.384615	4384.102564	4611.282051	4630.769231	4523.076923	4024.615385	4104.615385	4518.974359	4438.974359	4266.666667	3960.512821	1734.000000	1677.000000	121.928000	0.000000	0.000000	0.000000	0.000000	1	1	0	0	0	0	0	0	0	0	0	0	0	0	0	0
126.000000	4358.461538	4387.692308	4404.102564	3713.846154	4384.102564	4611.794872	4629.743590	4525.128205	4026.153846	4100.512821	4516.410256	4441.025641	4265.641026	3961.538462	1735.000000	1678.000000	121.928000	0.000000	0.000000	0.000000	0.000000	1	1	0	0	0	0	0	0	0	0	0	0	0	0	0	0
127.000000	4357.948718	4387.692308	4406.153846	3713.333333	4382.564103	4611.282051	4631.794872	4527.179487	4025.641026	4101.025641	4515.897436	4441.025641	4268.205128	3961.025641	1735.000000	1677.000000	121.944000	0.000000	0.000000	0.000000	0.000000	1	1	0	0	0	0	0	0	0	0	0	0	0	0	0	0
128.000000	4358.974359	4389.230769	4407.692308	3713.333333	4382.564103	4610.769231	4633.333333	4524.615385	4025.128205	4105.128205	4516.923077	4438.974359	4271.794872	3962.051282	1736.000000	1678.000000	121.944000	0.000000	0.000000	0.000000	0.000000	1	1	0	0	0	0	0	0	0	0	0	0	0	0	0	0
0.000000	4361.025641	4392.307692	4406.153846	3712.820513	4383.589744	4610.769231	4631.794872	4523.589744	4026.153846	4104.615385	4518.974359	4440.512821	4270.256410	3962.564103	1736.000000	1676.000000	121.959000	0.000000	0.000000	0.000000	0.000000	1	1	0	0	0	0	0	0	0	0	0	0	0	0	0	0
1.000000	4361.025641	4389.743590	4406.666667	3714.358974	4383.076923	4610.769231	4631.282051	4525.128205	4024.102564	4102.564103	4518.974359	4442.564103	4267.692308	3960.000000	1734.000000	1678.000000	121.975000	0.000000	0.000000	0.000000	0.000000	1	1	0	0	0	0	0	0	0	0	0	0	0	0	0	0
2.000000	4360.000000	4386.153846	4406.666667	3715.897436	4382.564103	4611.794872	4633.333333	4525.128205	4024.615385	4101.538462	4517.948718	4441.538462	4269.230769	3959.487179	1737.000000	1677.000000	121.980000	0.000000	0.000000	0.000000	0.000000	1	1	0	0	0	0	0	0	0	0	0	0	0	0	0	0
3.000000	4360.512821	4387.692308	4405.641026	3714.358974	4382.564103	4612.820513	4631.794872	4525.641026	4026.153846	4103.589744	4516.923077	4440.512821	4269.743590	3959.487179	1735.000000	1677.000000	121.980000	0.000000	0.000000	0.000000	0.000000	1	1	0	0	0	0	0	0	0	0	0	0	0	0	0	0
4.000000	4360.512821	4390.256410	4405.641026	3713.846154	4383.076923	4610.769231	4628.205128	4525.641026	4022.564103	4105.128205	4516.923077	4441.025641	4267.692308	3957.948718	1736.000000	1678.000000	121.995000	0.000000	0.000000	0.000000	0.000000	1	1	0	0	0	0	0	0	0	0	0	0	0	0	0	0
5.000000	4358.461538	4388.717949	4406.153846	3716.410256	4382.564103	4609.743590	4630.256410	4525.128205	4025.128205	4104.102564	4518.974359	4442.051282	4267.692308	3961.538462	1735.000000	1677.000000	121.995000	0.000000	0.000000	0.000000	0.000000	1	1	0	0	0	0	0	0	0	0	0	0	0	0	0	0
6.000000	4360.000000	4386.153846	4408.205128	3715.384615	4382.564103	4610.769231	4634.358974	4526.153846	4029.743590	4103.076923	4517.948718	4443.076923	4269.230769	3962.051282	1735.000000	1678.000000	122.011000	0.000000	0.000000	0.000000	0.000000	1	1	0	0	0	0	0	0	0	0	0	0	0	0	0	0
7.000000	4362.051282	4387.179487	4409.230769	3712.820513	4382.564103	4610.769231	4629.743590	4525.641026	4028.205128	4104.102564	4515.384615	4438.974359	4269.230769	3961.025641	1735.000000	1677.000000	122.011000	0.000000	0.000000	0.000000	0.000000	1	1	0	0	0	0	0	0	0	0	0	0	0	0	0	0
8.000000	4360.512821	4387.692308	4408.205128	3712.820513	4382.564103	4609.743590	4625.128205	4521.538462	4026.153846	4103.589744	4516.923077	4437.948718	4267.179487	3961.025641	1735.000000	1677.000000	122.027000	0.000000	0.000000	0.000000	0.000000	1	1	0	0	0	0	0	0	0	0	0	0	0	0	0	0
9.000000	4361.025641	4387.692308	4408.205128	3712.307692	4384.102564	4611.282051	4628.717949	4524.615385	4027.692308	4103.589744	4520.512821	4441.538462	4267.692308	3963.076923	1735.000000	1677.000000	122.027000	0.000000	0.000000	0.000000	0.000000	1	1	0	0	0	0	0	0	0	0	0	0	0	0	0	0
10.000000	4361.538462	4387.692308	4408.205128	3712.307692	4385.128205	4613.333333	4630.769231	4529.230769	4024.102564	4103.589744	4517.948718	4442.564103	4269.743590	3960.000000	1735.000000	1678.000000	122.042000	0.000000	0.000000	0.000000	0.000000	1	1	0	0	0	0	0	0	0	0	0	0	0	0	0	0
11.000000	4360.512821	4388.717949	4406.153846	3714.358974	4383.076923	4611.282051	4627.179487	4526.666667	4022.564103	4103.589744	4516.410256	4440.000000	4266.153846	3961.025641	1735.000000	1678.000000	122.042000	0.000000	0.000000	0.000000	0.000000	1	1	0	0	0	0	0	0	0	0	0	0	0	0	0	0
12.000000	4358.461538	4391.282051	4406.153846	3714.358974	4383.076923	4608.205128	4630.256410	4525.641026	4028.205128	4103.589744	4517.435897	4442.051282	4264.102564	3962.051282	1734.000000	1677.000000	122.058000	0.000000	0.000000	0.000000	0.000000	1	1	0	0	0	0	0	0	0	0	0	0	0	0	0	0
13.000000	4358.974359	4391.794872	4408.205128	3713.846154	4384.615385	4608.717949	4631.794872	4527.179487	4029.743590	4103.589744	4518.974359	4442.564103	4267.692308	3962.564103	1734.000000	1677.000000	122.058000	0.000000	0.000000	0.000000	0.000000	1	1	0	0	0	0	0	0	0	0	0	0	0	0	0	0
14.000000	4358.974359	4385.641026	4409.230769	3714.871795	4384.615385	4612.307692	4625.641026	4525.641026	4028.717949	4103.589744	4517.435897	4438.461538	4269.743590	3963.076923	1735.000000	1678.000000	122.073000	0.000000	0.000000	0.000000	0.000000	1	1	0	0	0	0	0	0	0	0	0	0	0	0	0	0
15.000000	4357.948718	4383.589744	4409.230769	3715.384615	4382.564103	4611.794872	4625.128205	4524.102564	4027.692308	4103.589744	4515.384615	4436.923077	4269.743590	3963.589744	1734.000000	1677.000000	122.073000	0.000000	0.000000	0.000000	0.000000	1	1	0	0	0	0	0	0	0	0	0	0	0	0	0	0
16.000000	4356.923077	4390.256410	4408.717949	3714.358974	4383.076923	4608.717949	4632.820513	4526.153846	4029.230769	4103.589744	4517.435897	4440.000000	4268.205128	3961.025641	1735.000000	1678.000000	122.089000	0.000000	0.000000	0.000000	0.000000	1	1	0	0	0	0	0	0	0	0	0	0	0	0	0	0
17.000000	4358.461538	4391.794872	4408.717949	3715.384615	4385.128205	4610.256410	4633.846154	4526.153846	4031.282051	4103.589744	4519.487179	4440.512821	4265.641026	3958.461538	1734.000000	1677.000000	122.094000	0.000000	0.000000	0.000000	0.000000	1	1	0	0	0	0	0	0	0	0	0	0	0	0	0	0
18.000000	4360.000000	4387.179487	4410.769231	3714.871795	4383.076923	4612.820513	4629.743590	4526.666667	4025.641026	4103.589744	4518.974359	4438.974359	4265.641026	3958.974359	1735.000000	1678.000000	122.094000	0.000000	0.000000	0.000000	0.000000	1	1	0	0	0	0	0	0	0	0	0	0	0	0	0	0
19.000000	4358.974359	4387.692308	4410.256410	3712.820513	4381.538462	4610.769231	4630.769231	4526.666667	4021.538462	4103.589744	4517.948718	4440.000000	4269.230769	3958.974359	1735.000000	1677.000000	122.109000	0.000000	0.000000	0.000000	0.000000	1	1	0	0	0	0	0	0	0	0	0	0	0	0	0	0
20.000000	4358.974359	4390.256410	4406.666667	3715.384615	4381.538462	4608.717949	4632.820513	4523.589744	4026.666667	4103.589744	4517.948718	4441.025641	4269.743590	3960.512821	1734.000000	1678.000000	122.109000	0.000000	0.000000	0.000000	0.000000	1	1	0	0	0	0	0	0	0	0	0	0	0	0	0	0
21.000000	4360.512821	4388.205128	4405.641026	3714.358974	4382.564103	4610.256410	4630.769231	4524.102564	4027.179487	4103.589744	4518.461538	4440.512821	4268.205128	3962.564103	1736.000000	1677.000000	122.125000	0.000000	0.000000	0.000000	0.000000	1	1	0	0	0	0	0	0	0	0	0	0	0	0	0	0
22.000000	4360.512821	4388.205128	4407.692308	3709.743590	4383.589744	4610.769231	4628.205128	4526.153846	4023.589744	4103.589744	4518.974359	4439.487179	4269.743590	3961.538462	1734.000000	1678.000000	122.125000	0.000000	0.000000	0.000000	0.000000	1	1	0	0	0	0	0	0	0	0	0	0	0	0	0	0
23.000000	4361.025641	4390.769231	4407.692308	3710.769231	4383.589744	4610.769231	4631.794872	4526.153846	4024.615385	4103.589744	4520.000000	4440.512821	4270.769231	3956.923077	1736.000000	1678.000000	122.140000	0.000000	0.000000	0.000000	0.000000	1	1	0	0	0	0	0	0	0	0	0	0	0	0	0	0
24.000000	4361.538462	4388.717949	4405.128205	3713.846154	4383.589744	4612.820513	4633.333333	4524.615385	4023.589744	4103.589744	4521.025641	4440.512821	4271.794872	3961.025641	1735.000000	1677.000000	122.140000	0.000000	0.000000	0.000000	0.000000	1	1	0	0	0	0	0	0	0	0	0	0	0	0	0	0
25.000000	4358.974359	4386.666667	4405.641026	3712.820513	4384.102564	4612.820513	4629.230769	4524.102564	4022.051282	4104.102564	4518.461538	4440.512821	4271.282051	3962.564103	1734.000000	1678.000000	122.156000	0.000000	0.000000	0.000000	0.000000	1	1	0	0	0	0	0	0	0	0	0	0	0	0	0	0
26.000000	4355.384615	4389.230769	4408.717949	3713.333333	4384.102564	4610.256410	4628.717949	4522.564103	4027.179487	4103.076923	4517.435897	4440.000000	4269.230769	3960.512821	1735.000000	1677.000000	122.156000	0.000000	0.000000	0.000000	0.000000	1	1	0	0	0	0	0	0	0	0	0	0	0	0	0	0
27.000000	4355.897436	4390.769231	4410.256410	3715.384615	4383.589744	4611.282051	4629.743590	4522.564103	4025.641026	4103.076923	4516.923077	4440.000000	4268.717949	3960.512821	1735.000000	1677.000000	122.172000	0.000000	0.000000	0.000000	0.000000	1	1	0	0	0	0	0	0	0	0	0	0	0	0	0	0
28.000000	4358.974359	4389.230769	4407.692308	3715.897436	4384.102564	4611.794872	4628.205128	4523.589744	4020.000000	4104.615385	4517.948718	4438.461538	4269.230769	3964.102564	1735.000000	1677.000000	122.172000	0.000000	0.000000	0.000000	0.000000	1	1	0	0	0	0	0	0	0	0	0	0	0	0	0	0
29.000000	4358.974359	4387.179487	4407.692308	3714.871795	4384.102564	4610.256410	4630.769231	4523.076923	4020.512821	4101.538462	4517.435897	4439.487179	4266.666667	3961.025641	1734.000000	1678.000000	122.187000	0.000000	0.000000	0.000000	0.000000	1	1	0	0	0	0	0	0	0	0	0	0	0	0	0	0
30.000000	4359.487179	4387.692308	4409.743590	3714.358974	4383.076923	4609.743590	4633.846154	4523.589744	4020.512821	4098.974359	4517.435897	4440.000000	4265.641026	3958.461538	1735.000000	1677.000000	122.187000	0.000000	0.000000	0.000000	0.000000	1	1	0	0	0	0	0	0	0	0	0	0	0	0	0	0
31.000000	4359.487179	4389.743590	4408.717949	3713.846154	4384.102564	4611.794872	4632.820513	4523.589744	4020.512821	4102.564103	4514.871795	4440.000000	4267.179487	3959.487179	1734.000000	1678.000000	122.207000	0.000000	0.000000	0.000000	0.000000	1	1	0	0	0	0	0	0	0	0	0	0	0	0	0	0
32.000000	4358.461538	4390.769231	4409.743590	3713.846154	4384.615385	4611.794872	4632.307692	4524.102564	4024.615385	4105.128205	4514.358974	4441.025641	4267.179487	3961.025641	1735.000000	1677.000000	122.207000	0.000000	0.000000	0.000000	0.000000	1	1	0	0	0	0	0	0	0	0	0	0	0	0	0	0
33.000000	4358.974359	4390.769231	4409.230769	3713.846154	4384.102564	4610.256410	4632.820513	4522.564103	4027.692308	4103.076923	4517.948718	4443.076923	4267.179487	3960.512821	1734.000000	1677.000000	122.223000	0.000000	0.000000	0.000000	0.000000	1	1	0	0	0	0	0	0	0	0	0	0	0	0	0	0
34.000000	4358.974359	4390.256410	4404.102564	3712.820513	4383.589744	4610.769231	4633.333333	4522.564103	4023.589744	4102.564103	4518.974359	4442.051282	4268.717949	3961.025641	1735.000000	1678.000000	122.223000	0.000000	0.000000	0.000000	0.000000	1	1	0	0	0	0	0	0	0	0	0	0	0	0	0	0
35.000000	4357.435897	4389.743590	4403.076923	3712.820513	4383.076923	4611.794872	4633.333333	4526.153846	4026.153846	4104.102564	4516.923077	4438.974359	4269.743590	3958.461538	1735.000000	1676.000000	122.238000	0.000000	0.000000	0.000000	0.000000	1	1	0	0	0	0	0	0	0	0	0	0	0	0	0	0
36.000000	4357.948718	4389.743590	4410.256410	3713.333333	4384.102564	4610.769231	4631.282051	4526.153846	4032.820513	4104.102564	4514.871795	4438.974359	4269.743590	3954.871795	1735.000000	1678.000000	122.238000	0.000000	0.000000	0.000000	0.000000	1	1	0	0	0	0	0	0	0	0	0	0	0	0	0	0
37.000000	4357.948718	4389.743590	4410.769231	3713.333333	4383.589744	4609.230769	4631.282051	4525.128205	4027.692308	4103.589744	4516.923077	4439.487179	4269.230769	3960.000000	1736.000000	1677.000000	122.254000	0.000000	0.000000	0.000000	0.000000	1	1	0	0	0	0	0	0	0	0	0	0	0	0	0	0
38.000000	4356.923077	4388.205128	4405.128205	3712.820513	4383.589744	4612.307692	4633.846154	4525.128205	4021.538462	4102.564103	4517.435897	4440.000000	4268.717949	3961.538462	1735.000000	1678.000000	122.254000	0.000000	0.000000	0.000000	0.000000	1	1	0	0	0	0	0	0	0	0	0	0	0	0	0	0
39.000000	4359.487179	4388.717949	4404.102564	3714.358974	4384.615385	4613.333333	4633.846154	4526.666667	4024.102564	4102.564103	4515.897436	4440.000000	4266.666667	3957.435897	1734.000000	1677.000000	122.270000	0.000000	0.000000	0.000000	0.000000	1	1	0	0	0	0	0	0	0	0	0	0	0	0	0	0
40.000000	4358.461538	4390.769231	4407.179487	3714.358974	4383.076923	4610.769231	4633.846154	4526.666667	4025.641026	4103.076923	4516.923077	4440.512821	4265.641026	3956.410256	1735.000000	1678.000000	122.270000	0.000000	0.000000	0.000000	0.000000	1	1	0	0	0	0	0	0	0	0	0	0	0	0	0	0
41.000000	4356.923077	4390.256410	4408.205128	3711.794872	4382.051282	4611.794872	4631.794872	4526.153846	4026.153846	4102.564103	4518.461538	4440.512821	4267.692308	3960.512821	1735.000000	1677.000000	122.285000	0.000000	0.000000	0.000000	0.000000	1	1	0	0	0	0	0	0	0	0	0	0	0	0	0	0
42.000000	4360.000000	4389.230769	4407.179487	3713.846154	4383.589744	4612.307692	4629.230769	4524.615385	4028.717949	4102.564103	4514.871795	4441.025641	4270.256410	3960.000000	1734.000000	1678.000000	122.285000	0.000000	0.000000	0.000000	0.000000	1	1	0	0	0	0	0	0	0	0	0	0	0	0	0	0
43.000000	4360.000000	4388.717949	4405.128205	3716.923077	4384.102564	4608.717949	4630.769231	4524.615385	4028.205128	4102.564103	4513.846154	4441.538462	4270.769231	3960.000000	1735.000000	1677.000000	122.301000	0.000000	0.000000	0.000000	0.000000	1	1	0	0	0	0	0	0	0	0	0	0	0	0	0	0
44.000000	4358.461538	4386.666667	4405.128205	3712.820513	4383.076923	4609.230769	4632.820513	4526.666667	4024.615385	4103.076923	4514.358974	4441.025641	4269.230769	3956.410256	1735.000000	1677.000000	122.301000	0.000000	0.000000	0.000000	0.000000	1	1	0	0	0	0	0	0	0	0	0	0	0	0	0	0
45.000000	4360.512821	4387.179487	4408.205128	3710.256410	4384.102564	4612.307692	4629.743590	4525.128205	4023.589744	4102.564103	4516.410256	4439.487179	4268.205128	3957.435897	1735.000000	1677.000000	122.317000	0.000000	0.000000	0.000000	0.000000	1	1	0	0	0	0	0	0	0	0	0	0	0	0	0	0
46.000000	4360.512821	4388.717949	4408.717949	3713.333333	4384.102564	4611.794872	4628.205128	4524.615385	4024.615385	4103.076923	4517.435897	4440.000000	4269.230769	3957.948718	1735.000000	1676.000000	122.321000	0.000000	0.000000	0.000000	0.000000	1	1	0	0	0	0	0	0	0	0	0	0	0	0	0	0
47.000000	4359.487179	4388.717949	4405.641026	3713.846154	4383.076923	4611.282051	4632.820513	4527.179487	4026.153846	4102.564103	4519.487179	4438.974359	4269.230769	3956.410256	1735.000000	1678.000000	122.321000	0.000000	0.000000	0.000000	0.000000	1	1	0	0	0	0	0	0	0	0	0	0	0	0	0	0
48.000000	4361.025641	4388.717949	4404.615385	3712.307692	4383.076923	4612.307692	4633.846154	4527.692308	4027.179487	4103.076923	4517.435897	4439.487179	4266.153846	3956.923077	1736.000000	1677.000000	122.337000	0.000000	0.000000	0.000000	0.000000	1	1	0	0	0	0	0	0	0	0	0	0	0	0	0	0
49.000000	4360.512821	4390.769231	4405.641026	3711.794872	4382.051282	4610.256410	4631.794872	4525.641026	4027.179487	4102.564103	4516.410256	4442.051282	4266.153846	3960.512821	1735.000000	1677.000000	122.337000	0.000000	0.000000	0.000000	0.000000	1	1	0	0	0	0	0	0	0	0	0	0	0	0	0	0
50.000000	4356.923077	4389.230769	4405.641026	3711.282051	4382.051282	4609.743590	4632.307692	4526.153846	4025.641026	4103.076923	4517.435897	4441.025641	4267.179487	3957.435897	1735.000000	1677.000000	122.352000	0.000000	0.000000	0.000000	0.000000	1	1	0	0	0	0	0	0	0	0	0	0	0	0	0	0
51.000000	4357.948718	4388.205128	4404.615385	3711.282051	4386.153846	4612.820513	4634.871795	4529.743590	4022.051282	4102.564103	4515.897436	4438.974359	4265.641026	3953.846154	1735.000000	1678.000000	122.352000	0.000000	0.000000	0.000000	0.000000	1	1	0	0	0	0	0	0	0	0	0	0	0	0	0	0
52.000000	4362.051282	4389.743590	4405.641026	3712.820513	4384.615385	4612.820513	4632.820513	4525.641026	4026.666667	4103.076923	4516.410256	4441.025641	4265.641026	3957.435897	1735.000000	1677.000000	122.368000	0.000000	0.000000	0.000000	0.000000	1	1	0	0	0	0	0	0	0	0	0	0	0	0	0	0
53.000000	4362.051282	4390.769231	4406.153846	3711.794872	4380.512821	4610.769231	4628.717949	4521.538462	4032.307692	4102.564103	4518.461538	4441.538462	4268.205128	3958.461538	1734.000000	1677.000000	122.368000	0.000000	0.000000	0.000000	0.000000	1	1	0	0	0	0	0	0	0	0	0	0	0	0	0	0
54.000000	4359.487179	4388.205128	4404.102564	3710.256410	4382.051282	4612.307692	4629.230769	4525.128205	4030.769231	4103.076923	4519.487179	4438.974359	4269.743590	3957.435897	1735.000000	1677.000000	122.384000	0.000000	0.000000	0.000000	0.000000	1	1	0	0	0	0	0	0	0	0	0	0	0	0	0	0
55.000000	4357.435897	4387.179487	4404.615385	3712.820513	4383.589744	4612.307692	4632.820513	4527.179487	4028.205128	4102.564103	4516.410256	4437.948718	4268.205128	3955.897436	1735.000000	1677.000000	122.384000	0.000000	0.000000	0.000000	0.000000	1	1	0	0	0	0	0	0	0	0	0	0	0	0	0	0
56.000000	4360.000000	4389.230769	4408.717949	3716.410256	4382.051282	4610.769231	4633.846154	4522.564103	4030.769231	4102.564103	4515.897436	4437.948718	4267.692308	3956.923077	1736.000000	1678.000000	122.399000	0.000000	0.000000	0.000000	0.000000	1	1	0	0	0	0	0	0	0	0	0	0	0	0	0	0
57.000000	4360.512821	4389.743590	4410.769231	3715.384615	4383.589744	4612.820513	4630.769231	4522.051282	4031.282051	4103.076923	4517.948718	4439.487179	4267.692308	3954.358974	1735.000000	1677.000000	122.399000	0.000000	0.000000	0.000000	0.000000	1	1	0	0	0	0	0	0	0	0	0	0	0	0	0	0
58.000000	4356.923077	4389.743590	4407.692308	3711.794872	4384.615385	4612.820513	4630.256410	4526.153846	4024.615385	4102.564103	4518.461538	4438.974359	4268.205128	3953.846154	1735.000000	1678.000000	122.415000	0.000000	0.000000	0.000000	0.000000	1	1	0	0	0	0	0	0	0	0	0	0	0	0	0	0
59.000000	4355.384615	4388.717949	4404.615385	3711.794872	4382.564103	4612.307692	4633.846154	4523.589744	4021.025641	4103.076923	4517.435897	4437.948718	4265.641026	3954.358974	1736.000000	1677.000000	122.415000	0.000000	0.000000	0.000000	0.000000	1	1	0	0	0	0	0	0	0	0	0	0	0	0	0	0
60.000000	4358.974359	4387.692308	4405.128205	3714.871795	4381.538462	4613.846154	4632.307692	4522.051282	4026.153846	4102.564103	4515.897436	4437.948718	4266.153846	3957.948718	1735.000000	1678.000000	122.435000	0.000000	0.000000	0.000000	0.000000	1	1	0	0	0	0	0	0	0	0	0	0	0	0	0	0
61.000000	4359.487179	4386.666667	4408.205128	3714.358974	4383.589744	4612.820513	4628.717949	4528.205128	4027.179487	4103.076923	4513.846154	4440.512821	4267.179487	3957.948718	1735.000000	1678.000000	122.435000	0.000000	0.000000	0.000000	0.000000	1	1	0	0	0	0	0	0	0	0	0	0	0	0	0	0
62.000000	4359.487179	4388.205128	4406.666667	3711.794872	4384.102564	4610.256410	4629.743590	4529.743590	4024.102564	4102.564103	4514.358974	4439.487179	4267.692308	3956.410256	1734.000000	1678.000000	122.450000	0.000000	0.000000	0.000000	0.000000	1	1	0	0	0	0	0	0	0	0	0	0	0	0	0	0
63.000000	4358.461538	4390.769231	4405.641026	3712.307692	4381.538462	4611.282051	4631.282051	4524.102564	4028.717949	4103.076923	4515.897436	4438.974359	4270.256410	3953.846154	1735.000000	1678.000000	122.450000	0.000000	0.000000	0.000000	0.000000	1	1	0	0	0	0	0	0	0	0	0	0	0	0	0	0
64.000000	4356.410256	4390.769231	4406.666667	3715.384615	4381.538462	4612.820513	4630.256410	4524.615385	4032.307692	4102.564103	4515.897436	4438.974359	4270.256410	3955.384615	1736.000000	1678.000000	122.466000	0.000000	0.000000	0.000000	0.000000	1	1	0	0	0	0	0	0	0	0	0	0	0	0	0	0
65.000000	4357.435897	4388.205128	4406.666667	3714.871795	4384.102564	4610.769231	4631.282051	4527.692308	4028.205128	4103.076923	4516.923077	4438.974359	4266.153846	3958.974359	1735.000000	1677.000000	122.466000	0.000000	0.000000	0.000000	0.000000	1	1	0	0	0	0	0	0	0	0	0	0	0	0	0	0
66.000000	4360.512821	4385.641026	4407.692308	3711.282051	4383.589744	4611.794872	4631.282051	4525.128205	4030.256410	4102.564103	4519.487179	4440.000000	4266.153846	3960.000000	1735.000000	1678.000000	122.482000	0.000000	0.000000	0.000000	0.000000	1	1	0	0	0	0	0	0	0	0	0	0	0	0	0	0
67.000000	4360.000000	4388.205128	4409.230769	3713.333333	4381.538462	4613.333333	4628.717949	4524.615385	4029.230769	4103.076923	4518.461538	4440.000000	4270.769231	3957.435897	1735.000000	1677.000000	122.482000	0.000000	0.000000	0.000000	0.000000	1	1	0	0	0	0	0	0	0	0	0	0	0	0	0	0
68.000000	4359.487179	4389.743590	4407.179487	3715.897436	4383.589744	4611.282051	4630.256410	4524.102564	4023.589744	4102.564103	4515.897436	4437.948718	4268.205128	3954.871795	1734.000000	1677.000000	122.497000	0.000000	0.000000	0.000000	0.000000	1	1	0	0	0	0	0	0	0	0	0	0	0	0	0	0
69.000000	4358.461538	4387.692308	4403.589744	3712.820513	4384.615385	4610.769231	4631.282051	4524.102564	4022.051282	4103.076923	4515.897436	4438.974359	4265.128205	3957.948718	1734.000000	1677.000000	122.497000	0.000000	0.000000	0.000000	0.000000	1	1	0	0	0	0	0	0	0	0	0	0	0	0	0	0
70.000000	4356.410256	4386.666667	4404.102564	3711.282051	4382.051282	4611.794872	4628.717949	4528.717949	4024.102564	4102.564103	4513.846154	4442.564103	4267.179487	3959.487179	1735.000000	1678.000000	122.513000	0.000000	0.000000	0.000000	0.000000	1	1	0	0	0	0	0	0	0	0	0	0	0	0	0	0
71.000000	4360.000000	4388.205128	4407.179487	3714.871795	4382.051282	4611.794872	4629.743590	4527.692308	4026.666667	4102.564103	4515.897436	4441.025641	4270.256410	3958.461538	1736.000000	1677.000000	122.513000	0.000000	0.000000	0.000000	0.000000	1	1	0	0	0	0	0	0	0	0	0	0	0	0	0	0
72.000000	4360.512821	4389.230769	4409.743590	3712.820513	4382.564103	4611.282051	4631.794872	4521.538462	4027.179487	4103.076923	4518.461538	4441.025641	4270.256410	3956.923077	1734.000000	1678.000000	122.529000	0.000000	0.000000	0.000000	0.000000	1	1	0	0	0	0	0	0	0	0	0	0	0	0	0	0
73.000000	4355.384615	4388.205128	4406.153846	3711.794872	4382.564103	4608.717949	4630.769231	4521.538462	4024.102564	4102.564103	4517.435897	4442.564103	4268.717949	3958.461538	1736.000000	1677.000000	122.529000	0.000000	0.000000	0.000000	0.000000	1	1	0	0	0	0	0	0	0	0	0	0	0	0	0	0
74.000000	4356.410256	4387.179487	4403.076923	3714.871795	4382.564103	4608.717949	4630.769231	4525.641026	4025.641026	4103.076923	4515.897436	4441.538462	4267.179487	3957.435897	1735.000000	1677.000000	122.544000	0.000000	0.000000	0.000000	0.000000	1	1	0	0	0	0	0	0	0	0	0	0	0	0	0	0
75.000000	4359.487179	4387.692308	4407.179487	3714.871795	4382.564103	4611.794872	4629.743590	4523.589744	4028.205128	4102.564103	4519.487179	4440.000000	4268.205128	3957.948718	1736.000000	1678.000000	122.553000	0.000000	0.000000	0.000000	0.000000	1	1	0	0	0	0	0	0	0	0	0	0	0	0	0	0
76.000000	4356.410256	4387.692308	4408.717949	3713.846154	4384.615385	4612.820513	4629.230769	4521.538462	4022.051282	4103.076923	4517.948718	4442.564103	4268.205128	3956.923077	1735.000000	1677.000000	122.553000	0.000000	0.000000	0.000000	0.000000	1	1	0	0	0	0	0	0	0	0	0	0	0	0	0	0
77.000000	4357.435897	4388.205128	4403.589744	3714.871795	4387.179487	4610.256410	4632.307692	4523.589744	4022.051282	4102.564103	4514.871795	4443.589744	4266.666667	3957.435897	1734.000000	1678.000000	122.568000	0.000000	0.000000	0.000000	0.000000	1	1	0	0	0	0	0	0	0	0	0	0	0	0	0	0
78.000000	4361.538462	4388.205128	4406.153846	3715.897436	4384.615385	4610.769231	4633.846154	4525.641026	4030.769231	4103.076923	4518.461538	4440.512821	4267.692308	3956.923077	1735.000000	1677.000000	122.568000	0.000000	0.000000	0.000000	0.000000	1	1	0	0	0	0	0	0	0	0	0	0	0	0	0	0
79.000000	4360.512821	4387.692308	4410.256410	3714.871795	4380.000000	4611.282051	4629.743590	4526.153846	4031.282051	4102.564103	4520.512821	4436.923077	4270.769231	3958.461538	1734.000000	1678.000000	122.584000	0.000000	0.000000	0.000000	0.000000	1	1	0	0	0	0	0	0	0	0	0	0	0	0	0	0
80.000000	4357.948718	4388.717949	4408.205128	3712.307692	4381.538462	4611.282051	4628.717949	4523.589744	4027.179487	4103.076923	4517.435897	4437.435897	4269.230769	3958.974359	1736.000000	1677.000000	122.584000	0.000000	0.000000	0.000000	0.000000	1	1	0	0	0	0	0	0	0	0	0	0	0	0	0	0
81.000000	4361.025641	4391.282051	4407.692308	3712.307692	4383.076923	4612.820513	4630.256410	4522.564103	4030.769231	4103.076923	4516.923077	4437.948718	4268.205128	3958.461538	1734.000000	1677.000000	122.600000	0.000000	0.000000	0.000000	0.000000	1	1	0	0	0	0	0	0	0	0	0	0	0	0	0	0
82.000000	4361.538462	4391.282051	4410.769231	3714.871795	4382.051282	4612.307692	4630.256410	4523.076923	4029.230769	4103.076923	4517.948718	4437.948718	4269.743590	3957.948718	1735.000000	1677.000000	122.608000	0.000000	0.000000	0.000000	0.000000	1	1	0	0	0	0	0	0	0	0	0	0	0	0	0	0
83.000000	4358.974359	4390.256410	4410.256410	3715.384615	4381.538462	4610.256410	4632.820513	4524.102564	4022.051282	4102.564103	4516.410256	4439.487179	4268.717949	3957.948718	1734.000000	1677.000000	122.616000	0.000000	0.000000	0.000000	0.000000	1	1	0	0	0	0	0	0	0	0	0	0	0	0	0	0
84.000000	4358.974359	4388.717949	4405.641026	3711.794872	4382.564103	4612.820513	4633.333333	4524.615385	4024.615385	4102.564103	4515.384615	4440.000000	4268.205128	3958.974359	1736.000000	1677.000000	122.624000	0.000000	0.000000	0.000000	0.000000	1	1	0	0	0	0	0	0	0	0	0	0	0	0	0	0
85.000000	4358.974359	4387.692308	4404.102564	3712.307692	4383.076923	4612.307692	4631.794872	4523.589744	4030.769231	4103.589744	4516.923077	4438.461538	4269.230769	3958.461538	1734.000000	1677.000000	122.628000	0.000000	0.000000	0.000000	0.000000	1	1	0	0	0	0	0	0	0	0	0	0	0	0	0	0
86.000000	4358.974359	4389.230769	4405.641026	3715.384615	4382.564103	4609.230769	4631.282051	4524.615385	4028.717949	4101.538462	4520.000000	4439.487179	4268.717949	3958.974359	1735.000000	1678.000000	122.628000	0.000000	0.000000	0.000000	0.000000	1	1	0	0	0	0	0	0	0	0	0	0	0	0	0	0
87.000000	4360.000000	4392.307692	4405.641026	3713.333333	4381.538462	4610.769231	4631.282051	4529.230769	4024.102564	4098.974359	4518.974359	4441.538462	4267.692308	3956.923077	1736.000000	1677.000000	122.643000	0.000000	0.000000	0.000000	0.000000	1	1	0	0	0	0	0	0	0	0	0	0	0	0	0	0
88.000000	4360.000000	4389.743590	4403.076923	3711.794872	4381.538462	4613.333333	4630.769231	4527.692308	4025.128205	4096.410256	4514.871795	4439.487179	4267.179487	3958.974359	1734.000000	1678.000000	122.643000	0.000000	0.000000	0.000000	0.000000	1	1	0	0	0	0	0	0	0	0	0	0	0	0	0	0
89.000000	4357.948718	4385.128205	4404.102564	3714.358974	4382.051282	4610.769231	4629.230769	4521.025641	4029.743590	4097.948718	4513.846154	4439.487179	4266.153846	3961.538462	1735.000000	1677.000000	122.663000	0.000000	0.000000	0.000000	0.000000	1	1	0	0	0	0	0	0	0	0	0	0	0	0	0	0
90.000000	4358.461538	4386.666667	4407.692308	3716.410256	4381.538462	4609.743590	4628.205128	4522.564103	4030.256410	4101.025641	4517.948718	4439.487179	4265.641026	3960.512821	1733.000000	1678.000000	122.663000	0.000000	0.000000	0.000000	0.000000	1	1	0	0	0	0	0	0	0	0	0	0	0	0	0	0
91.000000	4358.974359	4390.256410	4407.179487	3713.846154	4382.564103	4611.794872	4630.256410	4527.179487	4026.153846	4100.000000	4517.948718	4440.000000	4266.153846	3957.948718	1735.000000	1677.000000	122.679000	0.000000	0.000000	0.000000	0.000000	1	1	0	0	0	0	0	0	0	0	0	0	0	0	0	0
92.000000	4359.487179	4389.230769	4404.102564	3711.282051	4385.128205	4609.743590	4631.794872	4525.128205	4026.666667	4099.487179	4517.435897	4440.000000	4269.743590	3962.051282	1735.000000	1677.000000	122.679000	0.000000	0.000000	0.000000	0.000000	1	1	0	0	0	0	0	0	0	0	0	0	0	0	0	0
93.000000	4357.435897	4387.179487	4406.153846	3712.307692	4384.102564	4609.743590	4631.282051	4525.641026	4028.717949	4103.589744	4516.410256	4438.974359	4269.230769	3960.512821	1735.000000	1677.000000	122.679000	0.000000	0.000000	0.000000	0.000000	1	1	0	0	0	0	0	0	0	0	0	0	0	0	0	0
94.000000	4357.435897	4388.205128	4408.717949	3714.871795	4383.076923	4612.307692	4631.794872	4526.153846	4025.641026	4105.128205	4515.897436	4438.461538	4266.666667	3956.410256	1735.000000	1677.000000	122.695000	0.000000	0.000000	0.000000	0.000000	1	1	0	0	0	0	0	0	0	0	0	0	0	0	0	0
95.000000	4361.025641	4389.230769	4407.692308	3715.384615	4383.589744	4611.794872	4632.820513	4523.589744	4025.641026	4103.076923	4516.923077	4441.025641	4265.641026	3957.435897	1735.000000	1677.000000	122.710000	0.000000	0.000000	0.000000	0.000000	1	1	0	0	0	0	0	0	0	0	0	0	0	0	0	0
96.000000	4360.512821	4388.205128	4405.641026	3712.820513	4383.076923	4610.769231	4631.794872	4523.076923	4030.256410	4103.589744	4519.487179	4440.000000	4268.205128	3963.076923	1734.000000	1677.000000	122.710000	0.000000	0.000000	0.000000	0.000000	1	1	0	0	0	0	0	0	0	0	0	0	0	0	0	0
97.000000	4358.461538	4387.179487	4405.128205	3713.333333	4382.564103	4612.307692	4631.794872	4525.641026	4028.205128	4104.615385	4517.948718	4437.435897	4269.230769	3960.512821	1735.000000	1678.000000	122.710000	0.000000	0.000000	0.000000	0.000000	1	1	0	0	0	0	0	0	0	0	0	0	0	0	0	0
98.000000	4358.461538	4388.717949	4405.641026	3714.358974	4383.076923	4611.794872	4632.820513	4525.641026	4020.512821	4103.589744	4516.410256	4438.974359	4268.717949	3957.948718	1735.000000	1677.000000	122.726000	0.000000	0.000000	0.000000	0.000000	1	1	0	0	0	0	0	0	0	0	0	0	0	0	0	0
99.000000	4359.487179	4389.230769	4406.666667	3713.846154	4382.564103	4608.717949	4632.307692	4527.179487	4025.128205	4103.589744	4518.974359	4440.000000	4267.692308	3961.025641	1734.000000	1678.000000	122.741000	0.000000	0.000000	0.000000	0.000000	1	1	0	0	0	0	0	0	0	0	0	0	0	0	0	0
100.000000	4359.487179	4388.205128	4407.692308	3715.897436	4382.051282	4610.256410	4634.358974	4528.717949	4032.307692	4102.564103	4520.512821	4438.461538	4267.179487	3962.051282	1736.000000	1677.000000	122.741000	0.000000	0.000000	0.000000	0.000000	1	1	0	0	0	0	0	0	0	0	0	0	0	0	0	0
101.000000	4360.000000	4388.717949	4406.666667	3715.384615	4381.538462	4611.282051	4632.307692	4525.641026	4025.641026	4102.564103	4519.487179	4437.948718	4269.230769	3960.512821	1734.000000	1677.000000	122.757000	0.000000	0.000000	0.000000	0.000000	1	1	0	0	0	0	0	0	0	0	0	0	0	0	0	0
102.000000	4357.948718	4392.307692	4406.153846	3711.282051	4381.538462	4609.743590	4627.692308	4525.641026	4018.974359	4103.076923	4517.435897	4441.025641	4269.230769	3958.461538	1735.000000	1677.000000	122.757000	0.000000	0.000000	0.000000	0.000000	1	1	0	0	0	0	0	0	0	0	0	0	0	0	0	0
103.000000	4357.435897	4390.256410	4406.153846	3712.820513	4384.102564	4611.794872	4628.717949	4526.153846	4024.615385	4102.051282	4518.461538	4443.076923	4266.666667	3960.512821	1735.000000	1677.000000	122.757000	0.000000	0.000000	0.000000	0.000000	1	1	0	0	0	0	0	0	0	0	0	0	0	0	0	0
104.000000	4360.512821	4386.153846	4407.692308	3715.384615	4384.615385	4613.333333	4631.794872	4522.051282	4030.256410	4104.102564	4516.923077	4442.051282	4267.179487	3960.512821	1735.000000	1678.000000	122.777000	0.000000	0.000000	0.000000	0.000000	1	1	0	0	0	0	0	0	0	0	0	0	0	0	0	0
105.000000	4361.025641	4386.666667	4407.692308	3712.820513	4381.025641	4609.230769	4630.769231	4522.564103	4027.692308	4103.076923	4516.410256	4439.487179	4270.256410	3960.512821	1734.000000	1677.000000	122.777000	0.000000	0.000000	0.000000	0.000000	1	1	0	0	0	0	0	0	0	0	0	0	0	0	0	0
106.000000	4358.461538	4388.205128	4405.128205	3710.256410	4381.025641	4607.179487	4630.256410	4527.179487	4025.641026	4101.538462	4516.410256	4439.487179	4270.769231	3957.435897	1735.000000	1677.000000	122.793000	0.000000	0.000000	0.000000	0.000000	1	1	0	0	0	0	0	0	0	0	0	0	0	0	0	0
107.000000	4361.538462	4389.743590	4404.615385	3712.307692	4383.589744	4611.282051	4631.794872	4525.128205	4027.179487	4104.102564	4515.384615	4440.512821	4269.230769	3958.974359	1735.000000	1677.000000	122.793000	0.000000	0.000000	0.000000	0.000000	1	1	0	0	0	0	0	0	0	0	0	0	0	0	0	0
108.000000	4362.564103	4388.717949	4406.666667	3714.871795	4383.589744	4611.282051	4631.794872	4520.512821	4027.179487	4104.102564	4512.820513	4438.974359	4268.205128	3958.461538	1735.000000	1678.000000	122.809000	0.000000	0.000000	0.000000	0.000000	1	1	0	0	0	0	0	0	0	0	0	0	0	0	0	0
109.000000	4357.948718	4389.230769	4406.666667	3716.410256	4382.564103	4608.717949	4632.307692	4523.076923	4026.666667	4101.025641	4516.410256	4438.461538	4267.179487	3957.948718	1735.000000	1677.000000	122.809000	0.000000	0.000000	0.000000	0.000000	1	1	0	0	0	0	0	0	0	0	0	0	0	0	0	0
110.000000	4355.897436	4390.256410	4406.666667	3714.358974	4384.615385	4609.230769	4632.307692	4528.205128	4028.205128	4102.051282	4520.000000	4441.025641	4267.692308	3959.487179	1734.000000	1678.000000	122.824000	0.000000	0.000000	0.000000	0.000000	1	1	0	0	0	0	0	0	0	0	0	0	0	0	0	0
111.000000	4360.512821	4389.230769	4407.179487	3713.846154	4386.666667	4610.256410	4631.282051	4528.205128	4030.769231	4104.102564	4518.461538	4442.051282	4267.179487	3961.538462	1736.000000	1677.000000	122.824000	0.000000	0.000000	0.000000	0.000000	1	1	0	0	0	0	0	0	0	0	0	0	0	0	0	0
112.000000	4360.512821	4389.743590	4407.692308	3713.846154	4383.589744	4610.256410	4629.230769	4527.179487	4026.153846	4103.076923	4515.897436	4441.538462	4264.615385	3960.512821	1734.000000	1677.000000	122.840000	0.000000	0.000000	0.000000	0.000000	1	1	0	0	0	0	0	0	0	0	0	0	0	0	0	0
113.000000	4359.487179	4390.256410	4407.692308	3711.282051	4378.974359	4610.256410	4626.153846	4527.179487	4022.051282	4103.076923	4515.897436	4439.487179	4267.179487	3960.512821	1736.000000	1678.000000	122.840000	0.000000	0.000000	0.000000	0.000000	1	1	0	0	0	0	0	0	0	0	0	0	0	0	0	0
114.000000	4360.512821	4389.230769	4407.692308	3712.307692	4380.000000	4611.282051	4628.717949	4526.666667	4027.179487	4103.589744	4516.923077	4438.974359	4269.230769	3961.538462	1735.000000	1677.000000	122.855000	0.000000	0.000000	0.000000	0.000000	1	1	0	0	0	0	0	0	0	0	0	0	0	0	0	0
115.000000	4360.000000	4388.205128	4407.692308	3715.384615	4383.076923	4612.307692	4634.871795	4525.128205	4030.769231	4103.589744	4518.461538	4438.974359	4267.179487	3958.974359	1735.000000	1678.000000	122.855000	0.000000	0.000000	0.000000	0.000000	1	1	0	0	0	0	0	0	0	0	0	0	0	0	0	0
116.000000	4360.000000	4388.717949	4407.179487	3714.358974	4382.051282	4611.794872	4633.333333	4524.102564	4027.692308	4104.102564	4519.487179	4439.487179	4266.666667	3955.897436	1735.000000	1677.000000	122.871000	0.000000	0.000000	0.000000	0.000000	1	1	0	0	0	0	0	0	0	0	0	0	0	0	0	0
117.000000	4360.000000	4389.230769	4406.666667	3712.820513	4382.564103	4610.256410	4630.256410	4524.102564	4029.230769	4103.589744	4516.923077	4440.000000	4268.717949	3955.384615	1735.000000	1678.000000	122.871000	0.000000	0.000000	0.000000	0.000000	1	1	0	0	0	0	0	0	0	0	0	0	0	0	0	0
118.000000	4356.923077	4389.230769	4405.128205	3715.384615	4384.102564	4611.282051	4632.307692	4525.641026	4028.717949	4103.589744	4517.948718	4440.000000	4265.641026	3959.487179	1735.000000	1677.000000	122.887000	0.000000	0.000000	0.000000	0.000000	1	1	0	0	0	0	0	0	0	0	0	0	0	0	0	0
119.000000	4355.897436	4389.743590	4404.615385	3715.384615	4382.564103	4611.794872	4633.846154	4528.205128	4022.564103	4103.589744	4518.974359	4440.000000	4264.102564	3960.512821	1735.000000	1678.000000	122.891000	0.000000	0.000000	0.000000	0.000000	1	1	0	0	0	0	0	0	0	0	0	0	0	0	0	0
120.000000	4361.538462	4388.205128	4406.153846	3713.846154	4382.051282	4609.230769	4631.282051	4524.615385	4024.102564	4103.589744	4517.948718	4437.948718	4267.692308	3960.512821	1735.000000	1677.000000	122.891000	0.000000	0.000000	0.000000	0.000000	1	1	0	0	0	0	0	0	0	0	0	0	0	0	0	0
121.000000	4362.564103	4387.692308	4406.666667	3714.358974	4382.051282	4609.743590	4627.692308	4521.538462	4026.153846	4103.589744	4516.923077	4438.974359	4267.692308	3961.538462	1735.000000	1677.000000	122.907000	0.000000	0.000000	0.000000	0.000000	1	1	0	0	0	0	0	0	0	0	0	0	0	0	0	0
122.000000	4358.461538	4390.256410	4405.128205	3716.410256	4381.538462	4611.282051	4627.692308	4522.564103	4020.512821	4103.589744	4519.487179	4440.000000	4266.153846	3963.589744	1735.000000	1677.000000	122.907000	0.000000	0.000000	0.000000	0.000000	1	1	0	0	0	0	0	0	0	0	0	0	0	0	0	0
123.000000	4358.461538	4390.769231	4407.179487	3714.871795	4382.051282	4610.769231	4629.743590	4523.076923	4018.974359	4103.589744	4521.025641	4441.538462	4268.717949	3958.974359	1735.000000	1678.000000	122.922000	0.000000	0.000000	0.000000	0.000000	1	1	0	0	0	0	0	0	0	0	0	0	0	0	0	0
124.000000	4361.025641	4389.743590	4407.692308	3712.307692	4382.564103	4610.769231	4629.230769	4522.564103	4025.641026	4103.589744	4520.000000	4442.051282	4270.256410	3958.974359	1734.000000	1677.000000	122.922000	0.000000	0.000000	0.000000	0.000000	1	1	0	0	0	0	0	0	0	0	0	0	0	0	0	0
125.000000	4358.461538	4390.256410	4405.641026	3713.846154	4383.589744	4611.794872	4628.717949	4522.564103	4029.230769	4103.589744	4517.948718	4441.025641	4268.205128	3962.564103	1735.000000	1677.000000	122.938000	0.000000	0.000000	0.000000	0.000000	1	1	0	0	0	0	0	0	0	0	0	0	0	0	0	0
126.000000	4358.974359	4390.769231	4408.205128	3716.410256	4383.589744	4611.282051	4631.282051	4522.564103	4024.102564	4103.589744	4518.461538	4441.025641	4268.205128	3963.589744	1735.000000	1677.000000	122.938000	0.000000	0.000000	0.000000	0.000000	1	1	0	0	0	0	0	0	0	0	0	0	0	0	0	0
127.000000	4361.025641	4391.794872	4411.282051	3715.897436	4382.564103	4609.743590	4632.307692	4524.615385	4019.487179	4103.589744	4515.897436	4442.051282	4267.179487	3960.512821	1734.000000	1678.000000	122.954000	0.000000	0.000000	0.000000	0.000000	1	1	0	0	0	0	0	0	0	0	0	0	0	0	0	0
128.000000	4358.461538	4390.256410	4406.666667	3715.384615	4382.051282	4609.743590	4629.743590	4527.692308	4024.102564	4103.589744	4514.871795	4440.000000	4265.128205	3962.051282	1735.000000	1677.000000	122.954000	0.000000	0.000000	0.000000	0.000000	1	1	0	0	0	0	0	0	0	0	0	0	0	0	0	0
0.000000	4357.435897	4388.205128	4405.641026	3714.358974	4382.564103	4609.743590	4628.717949	4524.102564	4027.179487	4103.589744	4515.897436	4438.461538	4266.666667	3963.076923	1735.000000	1678.000000	122.969000	0.000000	0.000000	0.000000	0.000000	1	1	0	0	0	0	0	0	0	0	0	0	0	0	0	0
1.000000	4359.487179	4389.230769	4408.205128	3714.871795	4382.564103	4611.282051	4631.282051	4521.538462	4025.128205	4103.589744	4517.948718	4438.461538	4268.205128	3961.538462	1736.000000	1677.000000	122.969000	0.000000	0.000000	0.000000	0.000000	1	1	0	0	0	0	0	0	0	0	0	0	0	0	0	0
2.000000	4356.923077	4389.743590	4407.179487	3715.384615	4382.564103	4612.307692	4631.794872	4525.128205	4024.615385	4103.589744	4518.461538	4438.461538	4267.692308	3961.025641	1734.000000	1677.000000	122.985000	0.000000	0.000000	0.000000	0.000000	1	1	0	0	0	0	0	0	0	0	0	0	0	0	0	0
3.000000	4356.923077	4388.717949	4404.102564	3712.307692	4382.564103	4610.256410	4630.769231	4527.179487	4026.666667	4103.589744	4520.000000	4438.974359	4269.743590	3961.538462	1735.000000	1678.000000	122.985000	0.000000	0.000000	0.000000	0.000000	1	1	0	0	0	0	0	0	0	0	0	0	0	0	0	0
4.000000	4361.538462	4388.717949	4404.615385	3714.871795	4382.564103	4607.692308	4629.743590	4523.589744	4026.153846	4103.589744	4520.512821	4442.051282	4268.717949	3961.538462	1736.000000	1677.000000	123.005000	0.000000	0.000000	0.000000	0.000000	1	1	0	0	0	0	0	0	0	0	0	0	0	0	0	0
5.000000	4361.025641	4388.717949	4407.692308	3716.923077	4383.076923	4609.743590	4630.256410	4522.564103	4023.076923	4103.589744	4518.461538	4441.538462	4265.128205	3959.487179	1734.000000	1677.000000	123.005000	0.000000	0.000000	0.000000	0.000000	1	1	0	0	0	0	0	0	0	0	0	0	0	0	0	0
6.000000	4358.974359	4387.692308	4407.692308	3713.846154	4383.589744	4612.307692	4630.256410	4524.615385	4021.025641	4103.589744	4516.410256	4438.974359	4265.641026	3961.538462	1735.000000	1677.000000	123.021000	0.000000	0.000000	0.000000	0.000000	1	1	0	0	0	0	0	0	0	0	0	0	0	0	0	0
7.000000	4358.461538	4389.743590	4407.179487	3712.820513	4383.589744	4611.794872	4629.230769	4522.564103	4024.615385	4103.589744	4515.897436	4438.974359	4267.692308	3962.051282	1735.000000	1678.000000	123.021000	0.000000	0.000000	0.000000	0.000000	1	1	0	0	0	0	0	0	0	0	0	0	0	0	0	0
8.000000	4357.435897	4391.282051	4408.205128	3715.384615	4383.076923	4609.743590	4626.153846	4521.538462	4027.692308	4103.589744	4519.487179	4438.974359	4268.205128	3961.538462	1735.000000	1677.000000	123.036000	0.000000	0.000000	0.000000	0.000000	1	1	0	0	0	0	0	0	0	0	0	0	0	0	0	0
9.000000	4357.948718	4388.717949	4407.692308	3714.358974	4383.076923	4610.256410	4626.666667	4526.153846	4027.179487	4103.589744	4518.461538	4440.000000	4267.179487	3959.487179	1734.000000	1678.000000	123.036000	0.000000	0.000000	0.000000	0.000000	1	1	0	0	0	0	0	0	0	0	0	0	0	0	0	0
10.000000	4360.512821	4388.205128	4405.641026	3713.333333	4384.615385	4611.794872	4630.256410	4525.641026	4028.205128	4103.589744	4514.871795	4441.538462	4266.153846	3961.538462	1735.000000	1677.000000	123.052000	0.000000	0.000000	0.000000	0.000000	1	1	0	0	0	0	0	0	0	0	0	0	0	0	0	0
11.000000	4360.000000	4390.256410	4407.179487	3715.384615	4384.102564	4611.794872	4632.820513	4521.025641	4026.153846	4103.589744	4516.410256	4441.025641	4266.666667	3961.025641	1735.000000	1678.000000	123.052000	0.000000	0.000000	0.000000	0.000000	1	1	0	0	0	0	0	0	0	0	0	0	0	0	0	0
12.000000	4358.974359	4391.282051	4409.230769	3714.871795	4381.538462	4609.743590	4631.794872	4521.538462	4023.589744	4103.589744	4519.487179	4439.487179	4268.717949	3962.564103	1736.000000	1677.000000	123.067000	0.000000	0.000000	0.000000	0.000000	1	1	0	0	0	0	0	0	0	0	0	0	0	0	0	0
13.000000	4358.974359	4387.692308	4409.230769	3713.846154	4382.564103	4609.230769	4631.282051	4524.102564	4027.179487	4103.589744	4516.923077	4441.538462	4268.205128	3962.051282	1734.000000	1677.000000	123.067000	0.000000	0.000000	0.000000	0.000000	1	1	0	0	0	0	0	0	0	0	0	0	0	0	0	0
14.000000	4360.000000	4385.641026	4406.666667	3714.871795	4385.641026	4610.769231	4630.256410	4524.615385	4027.692308	4103.589744	4514.871795	4441.538462	4267.179487	3960.512821	1735.000000	1678.000000	123.083000	0.000000	0.000000	0.000000	0.000000	1	1	0	0	0	0	0	0	0	0	0	0	0	0	0	0
15.000000	4358.461538	4387.692308	4406.153846	3714.871795	4383.589744	4612.820513	4627.179487	4522.564103	4024.102564	4103.589744	4515.384615	4440.000000	4267.692308	3957.948718	1735.000000	1676.000000	123.083000	0.000000	0.000000	0.000000	0.000000	1	1	0	0	0	0	0	0	0	0	0	0	0	0	0	0
16.000000	4358.461538	4389.230769	4407.692308	3712.307692	4381.025641	4611.794872	4626.666667	4520.512821	4025.128205	4103.589744	4518.974359	4439.487179	4268.205128	3960.000000	1734.000000	1679.000000	123.099000	0.000000	0.000000	0.000000	0.000000	1	1	0	0	0	0	0	0	0	0	0	0	0	0	0	0
17.000000	4359.487179	4388.717949	4406.153846	3712.307692	4382.564103	4610.256410	4628.717949	4524.615385	4025.641026	4103.589744	4518.461538	4440.512821	4267.179487	3962.051282	1736.000000	1677.000000	123.099000	0.000000	0.000000	0.000000	0.000000	1	1	0	0	0	0	0	0	0	0	0	0	0	0	0	0
18.000000	4360.000000	4390.769231	4405.128205	3715.897436	4384.615385	4611.282051	4629.743590	4526.666667	4024.615385	4103.589744	4515.384615	4440.512821	4266.153846	3961.025641	1734.000000	1678.000000	123.115000	0.000000	0.000000	0.000000	0.000000	1	1	0	0	0	0	0	0	0	0	0	0	0	0	0	0
19.000000	4358.461538	4391.282051	4406.153846	3715.384615	4383.076923	4612.820513	4629.230769	4524.615385	4024.615385	4103.589744	4516.923077	4442.051282	4267.692308	3960.512821	1735.000000	1677.000000	123.119000	0.000000	0.000000	0.000000	0.000000	1	1	0	0	0	0	0	0	0	0	0	0	0	0	0	0
20.000000	4357.435897	4389.743590	4408.205128	3711.794872	4382.564103	4612.820513	4631.794872	4525.641026	4025.641026	4103.589744	4519.487179	4442.564103	4269.743590	3960.000000	1735.000000	1677.000000	123.119000	0.000000	0.000000	0.000000	0.000000	1	1	0	0	0	0	0	0	0	0	0	0	0	0	0	0
21.000000	4356.923077	4386.666667	4408.717949	3711.282051	4382.564103	4611.794872	4631.794872	4527.179487	4026.666667	4103.589744	4515.897436	4440.000000	4269.743590	3961.538462	1735.000000	1677.000000	123.135000	0.000000	0.000000	0.000000	0.000000	1	1	0	0	0	0	0	0	0	0	0	0	0	0	0	0
22.000000	4358.974359	4386.153846	4408.717949	3713.333333	4382.051282	4611.794872	4627.179487	4525.641026	4027.692308	4103.589744	4512.820513	4441.025641	4268.717949	3961.538462	1734.000000	1678.000000	123.135000	0.000000	0.000000	0.000000	0.000000	1	1	0	0	0	0	0	0	0	0	0	0	0	0	0	0
23.000000	4362.564103	4390.256410	4407.179487	3714.358974	4382.564103	4611.794872	4626.153846	4524.102564	4026.666667	4103.589744	4517.435897	4443.076923	4269.743590	3962.564103	1736.000000	1678.000000	123.150000	0.000000	0.000000	0.000000	0.000000	1	1	0	0	0	0	0	0	0	0	0	0	0	0	0	0
24.000000	4361.025641	4392.307692	4408.205128	3713.846154	4382.051282	4610.769231	4631.282051	4524.615385	4024.615385	4103.589744	4518.461538	4443.076923	4268.717949	3962.051282	1734.000000	1677.000000	123.150000	0.000000	0.000000	0.000000	0.000000	1	1	0	0	0	0	0	0	0	0	0	0	0	0	0	0
25.000000	4358.461538	4390.256410	4410.256410	3714.358974	4382.051282	4610.256410	4632.307692	4523.076923	4025.641026	4103.589744	4518.461538	4441.025641	4266.666667	3962.564103	1735.000000	1678.000000	123.166000	0.000000	0.000000	0.000000	0.000000	1	1	0	0	0	0	0	0	0	0	0	0	0	0	0	0
26.000000	4357.435897	4389.743590	4407.179487	3714.871795	4385.128205	4611.282051	4627.692308	4522.051282	4028.205128	4103.589744	4518.461538	4439.487179	4264.102564	3962.051282	1735.000000	1677.000000	123.182000	0.000000	0.000000	0.000000	0.000000	1	1	0	0	0	0	0	0	0	0	0	0	0	0	0	0
27.000000	4358.974359	4391.282051	4405.641026	3715.384615	4384.615385	4610.256410	4628.205128	4522.051282	4027.692308	4104.102564	4517.948718	4438.461538	4265.641026	3964.102564	1735.000000	1678.000000	123.182000	0.000000	0.000000	0.000000	0.000000	1	1	0	0	0	0	0	0	0	0	0	0	0	0	0	0
28.000000	4360.512821	4388.717949	4409.743590	3714.871795	4383.589744	4609.230769	4632.307692	4524.102564	4027.179487	4104.102564	4517.948718	4441.025641	4270.256410	3962.564103	1735.000000	1677.000000	123.182000	0.000000	0.000000	0.000000	0.000000	1	1	0	0	0	0	0	0	0	0	0	0	0	0	0	0
29.000000	4359.487179	4388.717949	4408.205128	3714.871795	4384.615385	4608.717949	4631.282051	4525.641026	4027.692308	4103.076923	4517.948718	4443.076923	4270.769231	3961.538462	1734.000000	1678.000000	123.197000	0.000000	0.000000	0.000000	0.000000	1	1	0	0	0	0	0	0	0	0	0	0	0	0	0	0
30.000000	4358.974359	4389.230769	4404.102564	3713.846154	4383.589744	4608.717949	4630.769231	4523.076923	4023.076923	4104.102564	4517.948718	4442.564103	4268.205128	3961.025641	1735.000000	1677.000000	123.197000	0.000000	0.000000	0.000000	0.000000	1	1	0	0	0	0	0	0	0	0	0	0	0	0	0	0
31.000000	4361.538462	4387.692308	4404.102564	3714.358974	4381.025641	4610.256410	4631.282051	4522.564103	4020.512821	4104.102564	4518.974359	4442.051282	4267.692308	3962.051282	1735.000000	1677.000000	123.213000	0.000000	0.000000	0.000000	0.000000	1	1	0	0	0	0	0	0	0	0	0	0	0	0	0	0
32.000000	4361.538462	4389.743590	4407.692308	3714.871795	4382.564103	4611.794872	4628.717949	4523.076923	4026.153846	4099.487179	4517.948718	4442.051282	4266.153846	3961.025641	1734.000000	1678.000000	123.213000	0.000000	0.000000	0.000000	0.000000	1	1	0	0	0	0	0	0	0	0	0	0	0	0	0	0
33.000000	4360.512821	4392.307692	4408.205128	3713.846154	4382.564103	4609.743590	4626.666667	4522.051282	4025.641026	4097.435897	4516.410256	4441.538462	4263.076923	3962.051282	1735.000000	1678.000000	123.233000	0.000000	0.000000	0.000000	0.000000	1	1	0	0	0	0	0	0	0	0	0	0	0	0	0	0
34.000000	4358.461538	4389.743590	4404.615385	3712.307692	4381.025641	4609.230769	4627.692308	4521.538462	4026.153846	4101.025641	4520.000000	4442.051282	4266.153846	3964.615385	1734.000000	1677.000000	123.233000	0.000000	0.000000	0.000000	0.000000	1	1	0	0	0	0	0	0	0	0	0	0	0	0	0	0
35.000000	4356.923077	4388.205128	4403.589744	3713.333333	4383.589744	4610.769231	4626.666667	4523.076923	4033.333333	4105.128205	4522.564103	4442.564103	4270.256410	3964.615385	1734.000000	1677.000000	123.249000	0.000000	0.000000	0.000000	0.000000	1	1	0	0	0	0	0	0	0	0	0	0	0	0	0	0
36.000000	4357.948718	4389.743590	4407.692308	3714.871795	4384.102564	4610.256410	4627.692308	4523.076923	4027.692308	4102.564103	4517.948718	4442.564103	4267.179487	3962.564103	1735.000000	1678.000000	123.249000	0.000000	0.000000	0.000000	0.000000	1	1	0	0	0	0	0	0	0	0	0	0	0	0	0	0
37.000000	4358.461538	4387.179487	4409.230769	3714.358974	4380.512821	4608.717949	4630.769231	4521.538462	4019.487179	4101.025641	4514.871795	4442.051282	4265.128205	3961.538462	1735.000000	1676.000000	123.264000	0.000000	0.000000	0.000000	0.000000	1	1	0	0	0	0	0	0	0	0	0	0	0	0	0	0
38.000000	4358.461538	4386.666667	4404.615385	3714.358974	4380.512821	4608.717949	4629.230769	4523.076923	4024.615385	4103.076923	4518.461538	4442.051282	4270.256410	3965.128205	1734.000000	1678.000000	123.264000	0.000000	0.000000	0.000000	0.000000	1	1	0	0	0	0	0	0	0	0	0	0	0	0	0	0
39.000000	4360.000000	4389.230769	4407.179487	3714.358974	4383.589744	4608.717949	4627.179487	4525.128205	4026.666667	4104.615385	4521.025641	4444.102564	4270.769231	3965.128205	1735.000000	1677.000000	123.280000	0.000000	0.000000	0.000000	0.000000	1	1	0	0	0	0	0	0	0	0	0	0	0	0	0	0
40.000000	4360.512821	4387.692308	4407.692308	3715.384615	4383.589744	4609.230769	4627.692308	4523.589744	4020.512821	4102.564103	4521.025641	4444.102564	4266.666667	3965.641026	1734.000000	1678.000000	123.280000	0.000000	0.000000	0.000000	0.000000	1	1	0	0	0	0	0	0	0	0	0	0	0	0	0	0
41.000000	4359.487179	4386.153846	4403.589744	3714.358974	4382.564103	4611.282051	4628.205128	4523.589744	4022.564103	4103.076923	4519.487179	4442.564103	4268.205128	3965.641026	1736.000000	1677.000000	123.296000	0.000000	0.000000	0.000000	0.000000	1	1	0	0	0	0	0	0	0	0	0	0	0	0	0	0
42.000000	4360.000000	4389.230769	4406.153846	3712.307692	4382.564103	4612.307692	4627.692308	4524.615385	4029.230769	4103.589744	4521.025641	4441.538462	4269.743590	3965.128205	1734.000000	1677.000000	123.296000	0.000000	0.000000	0.000000	0.000000	1	1	0	0	0	0	0	0	0	0	0	0	0	0	0	0
43.000000	4360.512821	4387.692308	4410.256410	3712.820513	4383.589744	4609.230769	4627.692308	4523.076923	4026.666667	4100.512821	4520.512821	4441.538462	4266.666667	3963.076923	1735.000000	1678.000000	123.311000	0.000000	0.000000	0.000000	0.000000	1	1	0	0	0	0	0	0	0	0	0	0	0	0	0	0
44.000000	4360.000000	4387.692308	4407.179487	3713.333333	4384.102564	4607.692308	4626.153846	4521.025641	4024.102564	4097.435897	4518.974359	4442.051282	4266.666667	3966.666667	1734.000000	1677.000000	123.311000	0.000000	0.000000	0.000000	0.000000	1	1	0	0	0	0	0	0	0	0	0	0	0	0	0	0
45.000000	4356.923077	4392.820513	4406.666667	3711.794872	4383.076923	4608.205128	4625.641026	4522.051282	4025.128205	4098.461538	4516.923077	4442.051282	4269.230769	3967.692308	1735.000000	1678.000000	123.327000	0.000000	0.000000	0.000000	0.000000	1	1	0	0	0	0	0	0	0	0	0	0	0	0	0	0
46.000000	4357.948718	4392.820513	4408.717949	3712.307692	4382.564103	4609.230769	4628.205128	4525.128205	4025.128205	4101.538462	4518.461538	4442.564103	4269.743590	3966.666667	1735.000000	1677.000000	123.327000	0.000000	0.000000	0.000000	0.000000	1	1	0	0	0	0	0	0	0	0	0	0	0	0	0	0
47.000000	4360.512821	4388.205128	4407.179487	3715.384615	4382.564103	4609.743590	4629.230769	4525.641026	4021.538462	4104.615385	4521.025641	4444.615385	4268.205128	3966.153846	1735.000000	1678.000000	123.342000	0.000000	0.000000	0.000000	0.000000	1	1	0	0	0	0	0	0	0	0	0	0	0	0	0	0
48.000000	4358.461538	4388.205128	4405.641026	3715.897436	4381.025641	4610.769231	4627.179487	4523.076923	4022.051282	4104.615385	4521.025641	4443.076923	4268.205128	3968.205128	1734.000000	1677.000000	123.349000	0.000000	0.000000	0.000000	0.000000	1	1	0	0	0	0	0	0	0	0	0	0	0	0	0	0
49.000000	4355.897436	4387.692308	4407.692308	3714.358974	4382.051282	4611.794872	4627.692308	4525.128205	4029.743590	4103.589744	4520.512821	4440.000000	4270.256410	3966.153846	1735.000000	1677.000000	123.349000	0.000000	0.000000	0.000000	0.000000	1	1	0	0	0	0	0	0	0	0	0	0	0	0	0	0
50.000000	4358.461538	4386.666667	4408.717949	3713.846154	4383.589744	4610.256410	4628.717949	4527.692308	4030.256410	4104.102564	4519.487179	4441.025641	4270.769231	3964.102564	1734.000000	1677.000000	123.365000	0.000000	0.000000	0.000000	0.000000	1	1	0	0	0	0	0	0	0	0	0	0	0	0	0	0
51.000000	4361.025641	4388.717949	4409.743590	3711.794872	4381.538462	4610.256410	4626.666667	4523.589744	4028.717949	4105.128205	4518.974359	4443.589744	4269.230769	3966.666667	1735.000000	1677.000000	123.365000	0.000000	0.000000	0.000000	0.000000	1	1	0	0	0	0	0	0	0	0	0	0	0	0	0	0
52.000000	4360.000000	4388.717949	4411.282051	3712.307692	4382.564103	4613.846154	4624.615385	4520.000000	4031.794872	4104.102564	4520.512821	4442.051282	4267.179487	3966.153846	1734.000000	1677.000000	123.380000	0.000000	0.000000	0.000000	0.000000	1	1	0	0	0	0	0	0	0	0	0	0	0	0	0	0
53.000000	4359.487179	4387.692308	4408.717949	3714.358974	4384.102564	4613.846154	4627.179487	4522.564103	4028.717949	4104.102564	4521.538462	4440.000000	4266.666667	3964.615385	1735.000000	1677.000000	123.380000	0.000000	0.000000	0.000000	0.000000	1	1	0	0	0	0	0	0	0	0	0	0	0	0	0	0
54.000000	4360.512821	4388.205128	4403.589744	3714.871795	4381.538462	4610.769231	4630.256410	4523.076923	4022.564103	4104.615385	4519.487179	4443.076923	4267.692308	3966.153846	1734.000000	1677.000000	123.396000	0.000000	0.000000	0.000000	0.000000	1	1	0	0	0	0	0	0	0	0	0	0	0	0	0	0
55.000000	4362.051282	4388.205128	4404.102564	3714.358974	4381.025641	4611.794872	4628.205128	4522.051282	4024.102564	4104.615385	4519.487179	4445.641026	4268.717949	3968.717949	1735.000000	1678.000000	123.396000	0.000000	0.000000	0.000000	0.000000	1	1	0	0	0	0	0	0	0	0	0	0	0	0	0	0
56.000000	4363.589744	4387.692308	4405.641026	3714.871795	4383.076923	4613.846154	4627.692308	4523.076923	4026.666667	4104.615385	4521.025641	4444.102564	4268.205128	3965.641026	1735.000000	1677.000000	123.412000	0.000000	0.000000	0.000000	0.000000	1	1	0	0	0	0	0	0	0	0	0	0	0	0	0	0
57.000000	4362.051282	4387.692308	4404.615385	3714.358974	4383.076923	4609.743590	4630.769231	4521.538462	4021.538462	4104.615385	4521.025641	4440.000000	4269.743590	3966.153846	1734.000000	1678.000000	123.412000	0.000000	0.000000	0.000000	0.000000	1	1	0	0	0	0	0	0	0	0	0	0	0	0	0	0
58.000000	4360.000000	4387.179487	4406.666667	3714.358974	4382.051282	4607.692308	4630.769231	4521.025641	4022.564103	4104.615385	4520.000000	4441.025641	4270.256410	3966.666667	1736.000000	1677.000000	123.427000	0.000000	0.000000	0.000000	0.000000	1	1	0	0	0	0	0	0	0	0	0	0	0	0	0	0
59.000000	4360.000000	4386.153846	4406.666667	3715.384615	4382.051282	4609.743590	4625.641026	4522.564103	4026.153846	4104.102564	4519.487179	4442.564103	4268.717949	3968.205128	1734.000000	1678.000000	123.427000	0.000000	0.000000	0.000000	0.000000	1	1	0	0	0	0	0	0	0	0	0	0	0	0	0	0
60.000000	4357.948718	4386.153846	4405.641026	3714.358974	4382.051282	4609.743590	4625.128205	4522.564103	4023.589744	4103.076923	4518.461538	4443.589744	4268.717949	3966.666667	1736.000000	1678.000000	123.443000	0.000000	0.000000	0.000000	0.000000	1	1	0	0	0	0	0	0	0	0	0	0	0	0	0	0
61.000000	4355.897436	4387.692308	4406.153846	3713.846154	4382.564103	4609.230769	4626.666667	4522.051282	4024.102564	4102.564103	4520.000000	4444.102564	4270.256410	3968.205128	1735.000000	1677.000000	123.443000	0.000000	0.000000	0.000000	0.000000	1	1	0	0	0	0	0	0	0	0	0	0	0	0	0	0
62.000000	4357.948718	4388.717949	4405.641026	3716.410256	4382.051282	4609.743590	4626.666667	4522.051282	4025.128205	4102.564103	4518.974359	4444.102564	4270.256410	3968.717949	1735.000000	1677.000000	123.459000	0.000000	0.000000	0.000000	0.000000	1	1	0	0	0	0	0	0	0	0	0	0	0	0	0	0
63.000000	4363.076923	4387.179487	4404.615385	3715.384615	4381.538462	4609.743590	4629.743590	4523.076923	4025.641026	4102.564103	4517.948718	4443.076923	4267.692308	3967.179487	1735.000000	1678.000000	123.463000	0.000000	0.000000	0.000000	0.000000	1	1	0	0	0	0	0	0	0	0	0	0	0	0	0	0
64.000000	4361.025641	4387.179487	4406.666667	3713.333333	4382.051282	4609.230769	4630.769231	4525.641026	4024.615385	4103.076923	4519.487179	4441.025641	4267.179487	3964.102564	1735.000000	1678.000000	123.463000	0.000000	0.000000	0.000000	0.000000	1	1	0	0	0	0	0	0	0	0	0	0	0	0	0	0
65.000000	4357.435897	4389.230769	4406.153846	3714.871795	4382.051282	4609.230769	4627.179487	4526.666667	4023.076923	4099.487179	4518.974359	4440.512821	4269.743590	3965.128205	1734.000000	1677.000000	123.479000	0.000000	0.000000	0.000000	0.000000	1	1	0	0	0	0	0	0	0	0	0	0	0	0	0	0
66.000000	4358.974359	4389.743590	4405.641026	3716.410256	4383.076923	4610.256410	4628.717949	4525.641026	4024.102564	4095.384615	4518.461538	4442.564103	4270.256410	3966.153846	1735.000000	1678.000000	123.479000	0.000000	0.000000	0.000000	0.000000	1	1	0	0	0	0	0	0	0	0	0	0	0	0	0	0
67.000000	4361.025641	4388.205128	4408.717949	3714.358974	4382.564103	4611.794872	4631.282051	4525.641026	4027.692308	4100.000000	4518.974359	4442.564103	4267.179487	3965.128205	1735.000000	1676.000000	123.494000	0.000000	0.000000	0.000000	0.000000	1	1	0	0	0	0	0	0	0	0	0	0	0	0	0	0
68.000000	4360.512821	4387.179487	4411.282051	3713.333333	4382.051282	4611.794872	4626.666667	4526.153846	4027.692308	4105.641026	4519.487179	4438.974359	4266.153846	3965.641026	1735.000000	1678.000000	123.494000	0.000000	0.000000	0.000000	0.000000	1	1	0	0	0	0	0	0	0	0	0	0	0	0	0	0
69.000000	4358.461538	4387.692308	4409.743590	3714.871795	4382.564103	4611.282051	4626.153846	4526.153846	4021.538462	4102.051282	4518.461538	4440.512821	4268.717949	3964.102564	1736.000000	1677.000000	123.510000	0.000000	0.000000	0.000000	0.000000	1	1	0	0	0	0	0	0	0	0	0	0	0	0	0	0
70.000000	4356.410256	4387.179487	4407.179487	3716.923077	4383.076923	4610.256410	4630.769231	4525.641026	4021.538462	4096.410256	4519.487179	4443.589744	4270.256410	3963.589744	1733.000000	1677.000000	123.510000	0.000000	0.000000	0.000000	0.000000	1	1	0	0	0	0	0	0	0	0	0	0	0	0	0	0
71.000000	4356.923077	4385.128205	4405.641026	3715.384615	4382.564103	4610.256410	4628.717949	4522.564103	4026.153846	4100.512821	4518.974359	4440.512821	4269.743590	3963.589744	1735.000000	1678.000000	123.526000	0.000000	0.000000	0.000000	0.000000	1	1	0	0	0	0	0	0	0	0	0	0	0	0	0	0
72.000000	4358.974359	4387.179487	4406.666667	3713.333333	4382.564103	4611.794872	4627.692308	4521.538462	4024.102564	4105.128205	4520.512821	4437.948718	4266.666667	3963.076923	1734.000000	1677.000000	123.526000	0.000000	0.000000	0.000000	0.000000	1	1	0	0	0	0	0	0	0	0	0	0	0	0	0	0
73.000000	4360.512821	4390.769231	4408.205128	3712.820513	4382.051282	4611.794872	4633.333333	4526.153846	4023.076923	4102.564103	4520.512821	4442.051282	4266.153846	3960.512821	1736.000000	1678.000000	123.541000	0.000000	0.000000	0.000000	0.000000	1	1	0	0	0	0	0	0	0	0	0	0	0	0	0	0
74.000000	4361.025641	4390.256410	4407.179487	3713.333333	4381.538462	4611.282051	4632.820513	4527.179487	4026.666667	4100.512821	4517.948718	4443.076923	4268.717949	3961.538462	1735.000000	1677.000000	123.541000	0.000000	0.000000	0.000000	0.000000	1	1	0	0	0	0	0	0	0	0	0	0	0	0	0	0
75.000000	4359.487179	4387.692308	4407.179487	3713.846154	4382.564103	4611.794872	4631.794872	4523.589744	4025.641026	4103.589744	4518.461538	4441.025641	4267.179487	3961.025641	1735.000000	1678.000000	123.557000	0.000000	0.000000	0.000000	0.000000	1	1	0	0	0	0	0	0	0	0	0	0	0	0	0	0
76.000000	4358.461538	4390.256410	4406.666667	3713.846154	4382.564103	4611.282051	4635.384615	4522.051282	4023.076923	4104.102564	4521.538462	4441.025641	4266.153846	3961.538462	1735.000000	1677.000000	123.557000	0.000000	0.000000	0.000000	0.000000	1	1	0	0	0	0	0	0	0	0	0	0	0	0	0	0
77.000000	4358.974359	4392.307692	4405.641026	3712.307692	4382.564103	4610.769231	4634.871795	4526.666667	4024.615385	4102.051282	4516.923077	4441.538462	4268.717949	3958.974359	1736.000000	1677.000000	123.577000	0.000000	0.000000	0.000000	0.000000	1	1	0	0	0	0	0	0	0	0	0	0	0	0	0	0
78.000000	4360.000000	4389.743590	4405.128205	3712.820513	4383.589744	4610.769231	4630.769231	4527.692308	4028.205128	4104.102564	4512.307692	4442.051282	4267.692308	3960.000000	1735.000000	1676.000000	123.577000	0.000000	0.000000	0.000000	0.000000	1	1	0	0	0	0	0	0	0	0	0	0	0	0	0	0
79.000000	4358.461538	4387.692308	4404.615385	3713.333333	4384.102564	4608.717949	4631.282051	4522.564103	4026.153846	4105.641026	4513.333333	4442.564103	4263.076923	3959.487179	1734.000000	1678.000000	123.592000	0.000000	0.000000	0.000000	0.000000	1	1	0	0	0	0	0	0	0	0	0	0	0	0	0	0
80.000000	4357.435897	4390.256410	4403.589744	3713.333333	4383.589744	4610.769231	4632.307692	4521.025641	4023.589744	4099.487179	4517.435897	4440.000000	4265.128205	3956.923077	1736.000000	1677.000000	123.592000	0.000000	0.000000	0.000000	0.000000	1	1	0	0	0	0	0	0	0	0	0	0	0	0	0	0
81.000000	4357.948718	4392.307692	4404.615385	3713.333333	4383.076923	4612.820513	4632.820513	4526.666667	4025.641026	4096.923077	4516.923077	4439.487179	4269.743590	3955.897436	1734.000000	1677.000000	123.608000	0.000000	0.000000	0.000000	0.000000	1	1	0	0	0	0	0	0	0	0	0	0	0	0	0	0
82.000000	4359.487179	4389.230769	4406.666667	3713.846154	4382.564103	4610.256410	4632.820513	4528.717949	4028.717949	4101.538462	4513.846154	4442.051282	4268.717949	3957.435897	1735.000000	1678.000000	123.608000	0.000000	0.000000	0.000000	0.000000	1	1	0	0	0	0	0	0	0	0	0	0	0	0	0	0
83.000000	4358.974359	4387.692308	4405.641026	3713.333333	4383.589744	4609.230769	4632.307692	4527.692308	4029.743590	4104.615385	4514.358974	4442.051282	4268.205128	3956.923077	1735.000000	1677.000000	123.624000	0.000000	0.000000	0.000000	0.000000	1	1	0	0	0	0	0	0	0	0	0	0	0	0	0	0
84.000000	4357.948718	4388.717949	4405.641026	3712.820513	4384.615385	4612.820513	4632.820513	4526.666667	4027.179487	4103.076923	4516.923077	4438.974359	4268.717949	3955.897436	1735.000000	1678.000000	123.624000	0.000000	0.000000	0.000000	0.000000	1	1	0	0	0	0	0	0	0	0	0	0	0	0	0	0
85.000000	4358.974359	4389.743590	4408.717949	3711.794872	4383.589744	4611.794872	4633.333333	4526.666667	4028.717949	4103.076923	4516.923077	4437.435897	4267.692308	3955.384615	1735.000000	1677.000000	123.639000	0.000000	0.000000	0.000000	0.000000	1	1	0	0	0	0	0	0	0	0	0	0	0	0	0	0
86.000000	4358.974359	4388.717949	4410.769231	3712.307692	4383.589744	4610.769231	4632.307692	4526.666667	4031.794872	4104.615385	4514.358974	4437.948718	4266.666667	3953.333333	1735.000000	1678.000000	123.639000	0.000000	0.000000	0.000000	0.000000	1	1	0	0	0	0	0	0	0	0	0	0	0	0	0	0
87.000000	4357.948718	4390.256410	4406.666667	3713.846154	4384.102564	4611.794872	4631.794872	4527.179487	4028.717949	4105.128205	4513.846154	4438.974359	4267.179487	3955.897436	1736.000000	1677.000000	123.655000	0.000000	0.000000	0.000000	0.000000	1	1	0	0	0	0	0	0	0	0	0	0	0	0	0	0
88.000000	4358.461538	4391.794872	4404.102564	3713.846154	4382.564103	4611.794872	4633.333333	4526.666667	4022.051282	4104.102564	4512.307692	4440.512821	4266.666667	3954.358974	1735.000000	1678.000000	123.655000	0.000000	0.000000	0.000000	0.000000	1	1	0	0	0	0	0	0	0	0	0	0	0	0	0	0
89.000000	4360.000000	4390.769231	4406.153846	3714.871795	4382.051282	4611.282051	4634.358974	4526.666667	4023.589744	4104.102564	4511.282051	4438.974359	4267.692308	3951.794872	1736.000000	1677.000000	123.671000	0.000000	0.000000	0.000000	0.000000	1	1	0	0	0	0	0	0	0	0	0	0	0	0	0	0
90.000000	4356.923077	4388.717949	4407.179487	3714.871795	4383.589744	4613.333333	4634.358974	4526.666667	4030.256410	4105.641026	4512.307692	4437.435897	4268.717949	3951.794872	1735.000000	1678.000000	123.671000	0.000000	0.000000	0.000000	0.000000	1	1	0	0	0	0	0	0	0	0	0	0	0	0	0	0
91.000000	4355.384615	4388.717949	4404.615385	3713.846154	4382.564103	4613.333333	4635.384615	4525.641026	4028.717949	4104.102564	4514.358974	4435.897436	4268.717949	3953.846154	1735.000000	1677.000000	123.686000	0.000000	0.000000	0.000000	0.000000	1	1	0	0	0	0	0	0	0	0	0	0	0	0	0	0
92.000000	4355.384615	4388.717949	4404.615385	3713.333333	4383.076923	4612.820513	4637.435897	4528.205128	4027.692308	4102.564103	4510.769231	4437.948718	4267.692308	3951.794872	1734.000000	1678.000000	123.691000	0.000000	0.000000	0.000000	0.000000	1	1	0	0	0	0	0	0	0	0	0	0	0	0	0	0
93.000000	4355.897436	4389.230769	4406.666667	3714.358974	4385.641026	4613.846154	4638.974359	4527.692308	4027.692308	4103.076923	4510.256410	4440.512821	4267.692308	3950.256410	1736.000000	1678.000000	123.691000	0.000000	0.000000	0.000000	0.000000	1	1	0	0	0	0	0	0	0	0	0	0	0	0	0	0
94.000000	4356.410256	4389.230769	4407.179487	3713.846154	4384.102564	4614.871795	4638.974359	4526.153846	4024.615385	4103.589744	4512.820513	4440.512821	4268.205128	3948.205128	1735.000000	1677.000000	123.706000	0.000000	0.000000	0.000000	0.000000	1	1	0	0	0	0	0	0	0	0	0	0	0	0	0	0
95.000000	4358.461538	4389.230769	4408.717949	3713.846154	4380.512821	4612.307692	4636.923077	4528.205128	4024.615385	4103.589744	4512.307692	4436.923077	4268.717949	3950.769231	1734.000000	1678.000000	123.706000	0.000000	0.000000	0.000000	0.000000	1	1	0	0	0	0	0	0	0	0	0	0	0	0	0	0
96.000000	4358.974359	4387.179487	4408.717949	3715.897436	4383.076923	4610.256410	4635.384615	4525.641026	4025.641026	4102.564103	4510.256410	4435.384615	4266.153846	3952.820513	1735.000000	1677.000000	123.722000	0.000000	0.000000	0.000000	0.000000	1	1	0	0	0	0	0	0	0	0	0	0	0	0	0	0
97.000000	4357.435897	4388.205128	4405.128205	3716.923077	4385.128205	4609.743590	4636.410256	4521.025641	4025.128205	4097.948718	4513.846154	4437.435897	4264.102564	3951.794872	1734.000000	1677.000000	123.722000	0.000000	0.000000	0.000000	0.000000	1	1	0	0	0	0	0	0	0	0	0	0	0	0	0	0
98.000000	4358.461538	4391.794872	4405.641026	3713.333333	4382.564103	4611.282051	4636.410256	4525.641026	4024.102564	4095.897436	4514.358974	4439.487179	4265.641026	3951.794872	1735.000000	1677.000000	123.737000	0.000000	0.000000	0.000000	0.000000	1	1	0	0	0	0	0	0	0	0	0	0	0	0	0	0
99.000000	4359.487179	4390.769231	4407.692308	3711.282051	4383.589744	4612.820513	4634.358974	4530.256410	4023.076923	4100.512821	4512.820513	4439.487179	4269.230769	3954.358974	1734.000000	1677.000000	123.737000	0.000000	0.000000	0.000000	0.000000	1	1	0	0	0	0	0	0	0	0	0	0	0	0	0	0
100.000000	4359.487179	4387.692308	4405.128205	3713.846154	4385.128205	4612.820513	4633.333333	4526.153846	4026.153846	4101.025641	4513.846154	4438.461538	4268.717949	3955.384615	1735.000000	1677.000000	123.753000	0.000000	0.000000	0.000000	0.000000	1	1	0	0	0	0	0	0	0	0	0	0	0	0	0	0
101.000000	4358.974359	4388.205128	4403.076923	3715.384615	4384.615385	4611.282051	4634.358974	4525.128205	4030.769231	4100.000000	4515.384615	4438.974359	4267.692308	3952.307692	1734.000000	1678.000000	123.753000	0.000000	0.000000	0.000000	0.000000	1	1	0	0	0	0	0	0	0	0	0	0	0	0	0	0
102.000000	4358.461538	4390.256410	4404.615385	3713.846154	4383.076923	4612.307692	4633.846154	4527.692308	4030.256410	4100.512821	4514.358974	4439.487179	4268.205128	3952.820513	1735.000000	1677.000000	123.769000	0.000000	0.000000	0.000000	0.000000	1	1	0	0	0	0	0	0	0	0	0	0	0	0	0	0
103.000000	4357.948718	4389.230769	4405.641026	3714.358974	4383.589744	4612.307692	4633.333333	4526.666667	4027.179487	4100.000000	4511.282051	4438.974359	4266.153846	3954.358974	1735.000000	1678.000000	123.769000	0.000000	0.000000	0.000000	0.000000	1	1	0	0	0	0	0	0	0	0	0	0	0	0	0	0
104.000000	4358.974359	4387.692308	4405.641026	3715.384615	4383.589744	4611.282051	4631.282051	4525.641026	4029.230769	4103.076923	4512.820513	4437.435897	4266.666667	3953.333333	1735.000000	1677.000000	123.784000	0.000000	0.000000	0.000000	0.000000	1	1	0	0	0	0	0	0	0	0	0	0	0	0	0	0
105.000000	4357.948718	4388.205128	4405.641026	3713.846154	4383.076923	4611.282051	4632.820513	4525.641026	4029.230769	4105.641026	4516.410256	4437.948718	4270.256410	3949.743590	1735.000000	1678.000000	123.784000	0.000000	0.000000	0.000000	0.000000	1	1	0	0	0	0	0	0	0	0	0	0	0	0	0	0
106.000000	4355.897436	4389.743590	4405.128205	3713.846154	4382.051282	4611.282051	4636.410256	4526.666667	4027.179487	4104.102564	4516.923077	4439.487179	4270.256410	3953.333333	1735.000000	1676.000000	123.804000	0.000000	0.000000	0.000000	0.000000	1	1	0	0	0	0	0	0	0	0	0	0	0	0	0	0
107.000000	4356.410256	4389.230769	4405.128205	3714.871795	4382.564103	4611.282051	4635.897436	4527.692308	4029.743590	4102.564103	4513.846154	4440.000000	4267.692308	3955.384615	1734.000000	1677.000000	123.804000	0.000000	0.000000	0.000000	0.000000	1	1	0	0	0	0	0	0	0	0	0	0	0	0	0	0
108.000000	4357.948718	4388.205128	4404.102564	3713.846154	4384.102564	4610.769231	4632.820513	4527.179487	4028.717949	4105.128205	4515.897436	4437.948718	4268.717949	3954.871795	1735.000000	1677.000000	123.820000	0.000000	0.000000	0.000000	0.000000	1	1	0	0	0	0	0	0	0	0	0	0	0	0	0	0
109.000000	4356.923077	4388.205128	4405.641026	3711.794872	4383.076923	4611.282051	4632.820513	4526.153846	4023.589744	4103.589744	4516.410256	4440.000000	4269.230769	3952.307692	1734.000000	1678.000000	123.820000	0.000000	0.000000	0.000000	0.000000	1	1	0	0	0	0	0	0	0	0	0	0	0	0	0	0
110.000000	4358.974359	4389.230769	4410.769231	3713.846154	4382.051282	4612.307692	4632.820513	4526.153846	4024.102564	4102.564103	4514.871795	4443.076923	4268.205128	3955.897436	1735.000000	1677.000000	123.836000	0.000000	0.000000	0.000000	0.000000	1	1	0	0	0	0	0	0	0	0	0	0	0	0	0	0
111.000000	4361.025641	4388.205128	4410.256410	3714.358974	4382.051282	4611.794872	4631.282051	4527.179487	4025.641026	4104.102564	4515.384615	4440.512821	4269.230769	3957.948718	1734.000000	1678.000000	123.836000	0.000000	0.000000	0.000000	0.000000	1	1	0	0	0	0	0	0	0	0	0	0	0	0	0	0
112.000000	4359.487179	4389.230769	4406.153846	3714.358974	4381.538462	4610.769231	4632.307692	4526.666667	4025.641026	4103.589744	4518.461538	4438.974359	4269.743590	3956.923077	1736.000000	1677.000000	123.851000	0.000000	0.000000	0.000000	0.000000	1	1	0	0	0	0	0	0	0	0	0	0	0	0	0	0
113.000000	4357.435897	4388.717949	4407.179487	3714.358974	4382.051282	4612.307692	4633.333333	4525.641026	4026.153846	4103.589744	4518.974359	4442.051282	4267.179487	3955.897436	1734.000000	1676.000000	123.851000	0.000000	0.000000	0.000000	0.000000	1	1	0	0	0	0	0	0	0	0	0	0	0	0	0	0
114.000000	4358.974359	4387.692308	4407.692308	3713.846154	4382.564103	4612.820513	4632.820513	4526.153846	4025.641026	4104.102564	4517.948718	4440.000000	4267.179487	3958.461538	1734.000000	1679.000000	123.867000	0.000000	0.000000	0.000000	0.000000	1	1	0	0	0	0	0	0	0	0	0	0	0	0	0	0
115.000000	4357.948718	4387.692308	4406.153846	3713.846154	4382.564103	4610.769231	4632.307692	4525.641026	4026.153846	4103.589744	4516.923077	4437.948718	4269.743590	3957.435897	1736.000000	1677.000000	123.867000	0.000000	0.000000	0.000000	0.000000	1	1	0	0	0	0	0	0	0	0	0	0	0	0	0	0
116.000000	4355.897436	4389.743590	4407.179487	3714.358974	4382.051282	4611.282051	4632.307692	4525.641026	4030.769231	4101.538462	4515.897436	4440.000000	4269.743590	3956.410256	1734.000000	1678.000000	123.883000	0.000000	0.000000	0.000000	0.000000	1	1	0	0	0	0	0	0	0	0	0	0	0	0	0	0
117.000000	4357.948718	4389.230769	4408.205128	3712.820513	4382.564103	4612.307692	4631.282051	4525.641026	4028.205128	4100.000000	4514.871795	4438.974359	4267.179487	3960.512821	1735.000000	1678.000000	123.883000	0.000000	0.000000	0.000000	0.000000	1	1	0	0	0	0	0	0	0	0	0	0	0	0	0	0
118.000000	4360.000000	4387.692308	4405.128205	3713.333333	4383.589744	4610.769231	4631.794872	4525.641026	4025.128205	4100.000000	4513.333333	4437.948718	4268.717949	3960.512821	1734.000000	1677.000000	123.898000	0.000000	0.000000	0.000000	0.000000	1	1	0	0	0	0	0	0	0	0	0	0	0	0	0	0
119.000000	4357.948718	4389.743590	4403.589744	3714.358974	4384.615385	4610.769231	4632.820513	4526.153846	4026.666667	4103.589744	4515.897436	4441.025641	4270.256410	3959.487179	1734.000000	1677.000000	123.898000	0.000000	0.000000	0.000000	0.000000	1	1	0	0	0	0	0	0	0	0	0	0	0	0	0	0
120.000000	4357.948718	4390.769231	4406.666667	3713.333333	4382.564103	4612.307692	4631.282051	4526.153846	4025.128205	4106.153846	4516.410256	4439.487179	4267.179487	3958.461538	1734.000000	1678.000000	123.914000	0.000000	0.000000	0.000000	0.000000	1	1	0	0	0	0	0	0	0	0	0	0	0	0	0	0
121.000000	4360.000000	4388.717949	4404.102564	3713.333333	4381.025641	4610.769231	4629.230769	4526.666667	4024.615385	4101.538462	4515.897436	4436.923077	4266.153846	3960.000000	1735.000000	1678.000000	123.919000	0.000000	0.000000	0.000000	0.000000	1	1	0	0	0	0	0	0	0	0	0	0	0	0	0	0
122.000000	4360.000000	4386.153846	4402.564103	3715.384615	4383.589744	4610.256410	4632.307692	4528.205128	4031.282051	4098.461538	4515.897436	4440.000000	4268.717949	3958.461538	1735.000000	1677.000000	123.919000	0.000000	0.000000	0.000000	0.000000	1	1	0	0	0	0	0	0	0	0	0	0	0	0	0	0
123.000000	4361.025641	4387.179487	4406.153846	3714.358974	4384.615385	4612.307692	4633.846154	4526.666667	4028.205128	4101.538462	4518.974359	4440.512821	4267.179487	3960.512821	1735.000000	1677.000000	123.934000	0.000000	0.000000	0.000000	0.000000	1	1	0	0	0	0	0	0	0	0	0	0	0	0	0	0
124.000000	4361.025641	4388.717949	4406.666667	3713.846154	4384.102564	4612.820513	4631.794872	4522.564103	4021.025641	4101.025641	4516.923077	4440.000000	4264.615385	3958.461538	1735.000000	1677.000000	123.934000	0.000000	0.000000	0.000000	0.000000	1	1	0	0	0	0	0	0	0	0	0	0	0	0	0	0
125.000000	4358.461538	4389.743590	4405.128205	3716.410256	4383.589744	4610.256410	4630.769231	4523.076923	4023.589744	4096.923077	4515.897436	4441.538462	4267.179487	3957.948718	1735.000000	1679.000000	123.950000	0.000000	0.000000	0.000000	0.000000	1	1	0	0	0	0	0	0	0	0	0	0	0	0	0	0
126.000000	4357.948718	4389.230769	4406.153846	3714.358974	4381.538462	4609.230769	4632.820513	4527.179487	4026.153846	4097.948718	4517.435897	4442.564103	4270.769231	3957.948718	1736.000000	1677.000000	123.950000	0.000000	0.000000	0.000000	0.000000	1	1	0	0	0	0	0	0	0	0	0	0	0	0	0	0
127.000000	4361.025641	4387.692308	4407.179487	3710.769231	4381.538462	4610.256410	4634.871795	4526.666667	4023.076923	4101.538462	4518.461538	4441.538462	4270.256410	3963.076923	1733.000000	1678.000000	123.965000	0.000000	0.000000	0.000000	0.000000	1	1	0	0	0	0	0	0	0	0	0	0	0	0	0	0
128.000000	4359.487179	4387.692308	4409.743590	3712.820513	4383.076923	4610.256410	4631.282051	4524.102564	4021.538462	4103.589744	4516.923077	4440.512821	4267.692308	3964.615385	1736.000000	1678.000000	123.965000	0.000000	0.000000	0.000000	0.000000	1	1	0	0	0	0	0	0	0	0	0	0	0	0	0	0
0.000000	4358.461538	4388.717949	4410.256410	3714.871795	4382.051282	4609.743590	4627.692308	4524.615385	4025.128205	4103.589744	4517.948718	4439.487179	4267.692308	3962.564103	1734.000000	1677.000000	123.981000	0.000000	0.000000	0.000000	0.000000	1	1	0	0	0	0	0	0	0	0	0	0	0	0	0	0
1.000000	4360.000000	4388.205128	4405.641026	3713.333333	4381.025641	4611.282051	4627.692308	4523.589744	4025.641026	4103.076923	4520.512821	4440.512821	4270.256410	3962.051282	1734.000000	1678.000000	123.981000	0.000000	0.000000	0.000000	0.000000	1	1	0	0	0	0	0	0	0	0	0	0	0	0	0	0
2.000000	4360.000000	4387.179487	4406.153846	3712.820513	4383.076923	4611.794872	4628.205128	4522.051282	4025.128205	4103.589744	4520.512821	4444.102564	4269.230769	3963.076923	1734.000000	1677.000000	123.997000	0.000000	0.000000	0.000000	0.000000	1	1	0	0	0	0	0	0	0	0	0	0	0	0	0	0
3.000000	4358.461538	4389.230769	4408.205128	3713.846154	4383.076923	4611.282051	4627.692308	4524.615385	4026.153846	4104.615385	4519.487179	4444.102564	4267.179487	3962.051282	1736.000000	1678.000000	123.997000	0.000000	0.000000	0.000000	0.000000	1	1	0	0	0	0	0	0	0	0	0	0	0	0	0	0
4.000000	4359.487179	4390.256410	4404.615385	3714.358974	4381.025641	4609.743590	4629.743590	4528.205128	4025.641026	4104.102564	4517.948718	4441.538462	4267.692308	3962.564103	1734.000000	1677.000000	124.012000	0.000000	0.000000	0.000000	0.000000	1	1	0	0	0	0	0	0	0	0	0	0	0	0	0	0
5.000000	4358.974359	4387.692308	4405.641026	3714.871795	4381.025641	4608.717949	4629.743590	4524.102564	4023.076923	4104.615385	4517.948718	4440.512821	4271.794872	3965.128205	1735.000000	1678.000000	124.012000	0.000000	0.000000	0.000000	0.000000	1	1	0	0	0	0	0	0	0	0	0	0	0	0	0	0
6.000000	4357.948718	4386.153846	4410.256410	3715.384615	4382.051282	4611.282051	4627.692308	4522.051282	4022.051282	4104.102564	4517.435897	4441.538462	4271.282051	3962.564103	1736.000000	1677.000000	124.028000	0.000000	0.000000	0.000000	0.000000	1	1	0	0	0	0	0	0	0	0	0	0	0	0	0	0
7.000000	4360.000000	4388.717949	4408.205128	3715.897436	4383.076923	4613.846154	4628.717949	4523.589744	4022.564103	4104.615385	4515.897436	4440.512821	4266.666667	3960.000000	1735.000000	1679.000000	124.032000	0.000000	0.000000	0.000000	0.000000	1	1	0	0	0	0	0	0	0	0	0	0	0	0	0	0
8.000000	4362.051282	4389.743590	4407.179487	3715.384615	4382.051282	4612.307692	4630.769231	4524.102564	4021.538462	4104.615385	4516.923077	4441.025641	4265.641026	3959.487179	1736.000000	1677.000000	124.032000	0.000000	0.000000	0.000000	0.000000	1	1	0	0	0	0	0	0	0	0	0	0	0	0	0	0
9.000000	4360.512821	4390.256410	4408.205128	3714.358974	4380.512821	4610.769231	4629.743590	4521.025641	4025.128205	4103.589744	4521.025641	4441.025641	4267.692308	3961.538462	1734.000000	1678.000000	124.048000	0.000000	0.000000	0.000000	0.000000	1	1	0	0	0	0	0	0	0	0	0	0	0	0	0	0
10.000000	4358.974359	4392.307692	4408.717949	3714.871795	4381.025641	4610.769231	4627.179487	4522.051282	4028.717949	4105.128205	4518.974359	4440.000000	4267.179487	3961.025641	1735.000000	1678.000000	124.048000	0.000000	0.000000	0.000000	0.000000	1	1	0	0	0	0	0	0	0	0	0	0	0	0	0	0
11.000000	4358.461538	4391.282051	4407.692308	3715.384615	4383.076923	4608.717949	4628.717949	4524.102564	4027.179487	4105.128205	4515.384615	4439.487179	4267.692308	3962.564103	1734.000000	1677.000000	124.064000	0.000000	0.000000	0.000000	0.000000	1	1	0	0	0	0	0	0	0	0	0	0	0	0	0	0
12.000000	4359.487179	4387.692308	4405.128205	3714.871795	4382.564103	4610.256410	4633.333333	4523.589744	4025.128205	4100.000000	4516.923077	4441.025641	4269.230769	3961.538462	1736.000000	1678.000000	124.064000	0.000000	0.000000	0.000000	0.000000	1	1	0	0	0	0	0	0	0	0	0	0	0	0	0	0
13.000000	4360.000000	4388.205128	4403.589744	3713.333333	4381.538462	4613.333333	4633.333333	4523.076923	4027.179487	4100.000000	4519.487179	4442.051282	4268.717949	3962.051282	1735.000000	1677.000000	124.079000	0.000000	0.000000	0.000000	0.000000	1	1	0	0	0	0	0	0	0	0	0	0	0	0	0	0
14.000000	4358.461538	4390.256410	4407.179487	3711.282051	4383.076923	4611.282051	4628.205128	4522.564103	4025.128205	4103.076923	4517.948718	4443.589744	4269.230769	3962.564103	1735.000000	1677.000000	124.079000	0.000000	0.000000	0.000000	0.000000	1	1	0	0	0	0	0	0	0	0	0	0	0	0	0	0
15.000000	4360.000000	4389.743590	4409.230769	3712.307692	4383.076923	4609.230769	4627.692308	4524.615385	4021.538462	4098.974359	4517.948718	4442.564103	4269.743590	3963.076923	1735.000000	1677.000000	124.095000	0.000000	0.000000	0.000000	0.000000	1	1	0	0	0	0	0	0	0	0	0	0	0	0	0	0
16.000000	4360.000000	4387.692308	4408.205128	3713.333333	4383.076923	4611.282051	4628.717949	4525.128205	4023.076923	4096.923077	4516.410256	4442.564103	4267.692308	3961.538462	1736.000000	1678.000000	124.095000	0.000000	0.000000	0.000000	0.000000	1	1	0	0	0	0	0	0	0	0	0	0	0	0	0	0
17.000000	4358.461538	4389.230769	4409.230769	3714.358974	4383.589744	4611.282051	4626.153846	4522.564103	4025.128205	4102.051282	4515.897436	4442.564103	4268.205128	3963.076923	1735.000000	1677.000000	124.110000	0.000000	0.000000	0.000000	0.000000	1	1	0	0	0	0	0	0	0	0	0	0	0	0	0	0
18.000000	4360.512821	4388.717949	4410.769231	3716.410256	4384.615385	4609.743590	4625.641026	4524.102564	4025.128205	4101.025641	4516.410256	4441.538462	4267.692308	3965.641026	1734.000000	1678.000000	124.110000	0.000000	0.000000	0.000000	0.000000	1	1	0	0	0	0	0	0	0	0	0	0	0	0	0	0
19.000000	4360.512821	4386.666667	4409.743590	3715.897436	4385.128205	4609.743590	4628.205128	4527.179487	4027.692308	4100.000000	4515.897436	4441.538462	4265.641026	3965.128205	1736.000000	1677.000000	124.126000	0.000000	0.000000	0.000000	0.000000	1	1	0	0	0	0	0	0	0	0	0	0	0	0	0	0
20.000000	4357.948718	4387.179487	4408.205128	3714.358974	4383.076923	4611.794872	4627.179487	4525.128205	4025.641026	4103.076923	4516.410256	4442.051282	4267.179487	3965.128205	1734.000000	1678.000000	124.126000	0.000000	0.000000	0.000000	0.000000	1	1	0	0	0	0	0	0	0	0	0	0	0	0	0	0
