Counter	AF3	F7	F3	FC5	T7	P7	O1	O2	P8	T8	FC6	F4	F8	AF4	GyroX	GyroY	Timestamp	FUNC_ID	FUNC_VALUE	MARKER	SYNC_SIGNAL	CMS_Q	DRL_Q	AF3_Q	F7_Q	F3_Q	FC5_Q	T7_Q	P7_Q	O1_Q	O2_Q	P8_Q	T8_Q	FC6_Q	F4_Q	F8_Q	AF4_Q
17.000000	4344.615385	4386.666667	4402.051282	3715.897436	4369.743590	4607.692308	4624.102564	4523.589744	4022.564103	4101.538462	4502.564103	4432.820513	4265.641026	3952.307692	1728.000000	1680.000000	55.350000	0.000000	0.000000	0.000000	0.000000	0	0	0	0	0	0	0	0	0	0	0	0	0	0	0	0
18.000000	4347.179487	4388.717949	4403.076923	3716.923077	4371.282051	4607.179487	4622.051282	4522.564103	4022.051282	4104.102564	4503.076923	4432.307692	4267.179487	3955.897436	1728.000000	1681.000000	55.365000	0.000000	0.000000	0.000000	0.000000	0	0	0	0	0	0	0	0	0	0	0	0	0	0	0	0
19.000000	4343.076923	4388.205128	4406.666667	3716.410256	4374.871795	4607.692308	4622.564103	4520.512821	4024.102564	4102.564103	4501.025641	4430.256410	4264.615385	3953.846154	1729.000000	1680.000000	55.365000	0.000000	0.000000	0.000000	0.000000	0	0	0	0	0	0	0	0	0	0	0	0	0	0	0	0
20.000000	4343.589744	4386.666667	4405.641026	3713.846154	4371.282051	4609.743590	4625.128205	4523.589744	4025.641026	4101.538462	4502.564103	4431.282051	4266.666667	3953.846154	1729.000000	1681.000000	55.381000	0.000000	0.000000	0.000000	0.000000	0	0	0	0	0	0	0	0	0	0	0	0	0	0	0	0
21.000000	4343.589744	4386.153846	4404.102564	3712.307692	4368.717949	4609.230769	4627.179487	4527.692308	4022.564103	4103.076923	4504.102564	4431.282051	4264.615385	3953.333333	1729.000000	1680.000000	55.381000	0.000000	0.000000	0.000000	0.000000	0	0	0	0	0	0	0	0	0	0	0	0	0	0	0	0
22.000000	4345.128205	4389.230769	4405.128205	3714.871795	4371.282051	4608.205128	4625.128205	4523.589744	4025.641026	4104.102564	4503.589744	4432.307692	4265.641026	3955.897436	1729.000000	1680.000000	55.381000	0.000000	0.000000	0.000000	0.000000	0	0	0	0	0	0	0	0	0	0	0	0	0	0	0	0
23.000000	4344.102564	4387.179487	4406.666667	3715.384615	4373.846154	4608.205128	4626.153846	4522.564103	4024.102564	4102.051282	4501.538462	4430.256410	4262.564103	3951.794872	1730.000000	1679.000000	55.397000	0.000000	0.000000	0.000000	0.000000	0	0	0	0	0	0	0	0	0	0	0	0	0	0	0	0
24.000000	4346.666667	4387.692308	4404.102564	3714.871795	4371.282051	4608.717949	4627.692308	4523.076923	4021.025641	4101.538462	4505.641026	4430.256410	4265.641026	3953.846154	1729.000000	1679.000000	55.412000	0.000000	0.000000	0.000000	0.000000	0	0	0	0	0	0	0	0	0	0	0	0	0	0	0	0
25.000000	4343.589744	4386.153846	4402.564103	3713.333333	4370.256410	4607.692308	4629.743590	4523.076923	4022.564103	4102.564103	4504.615385	4430.769231	4263.589744	3952.307692	1728.000000	1679.000000	55.412000	0.000000	0.000000	0.000000	0.000000	0	0	0	0	0	0	0	0	0	0	0	0	0	0	0	0
26.000000	4345.128205	4386.666667	4404.102564	3716.923077	4370.769231	4608.717949	4626.153846	4520.512821	4026.666667	4102.051282	4504.102564	4432.820513	4266.153846	3950.769231	1729.000000	1677.000000	55.428000	0.000000	0.000000	0.000000	0.000000	0	0	0	0	0	0	0	0	0	0	0	0	0	0	0	0
27.000000	4345.128205	4389.743590	4406.153846	3716.410256	4371.282051	4606.153846	4623.076923	4523.076923	4025.641026	4100.512821	4503.076923	4429.743590	4265.641026	3952.820513	1728.000000	1677.000000	55.428000	0.000000	0.000000	0.000000	0.000000	0	0	0	0	0	0	0	0	0	0	0	0	0	0	0	0
28.000000	4345.641026	4389.743590	4402.564103	3712.307692	4372.820513	4605.641026	4623.589744	4524.102564	4025.128205	4101.538462	4504.615385	4429.743590	4266.666667	3957.948718	1729.000000	1676.000000	55.428000	0.000000	0.000000	0.000000	0.000000	0	0	0	0	0	0	0	0	0	0	0	0	0	0	0	0
29.000000	4344.615385	4388.717949	4402.051282	3712.820513	4373.333333	4609.743590	4625.128205	4525.128205	4025.641026	4104.615385	4506.666667	4428.717949	4265.641026	3954.358974	1729.000000	1677.000000	55.444000	0.000000	0.000000	0.000000	0.000000	0	0	0	0	0	0	0	0	0	0	0	0	0	0	0	0
30.000000	4345.641026	4389.230769	4403.076923	3717.435897	4372.307692	4610.256410	4622.564103	4522.564103	4024.615385	4103.076923	4507.692308	4429.743590	4266.666667	3953.333333	1731.000000	1676.000000	55.459000	0.000000	0.000000	0.000000	0.000000	0	0	0	0	0	0	0	0	0	0	0	0	0	0	0	0
31.000000	4345.128205	4387.692308	4403.589744	3718.461538	4371.282051	4606.153846	4621.538462	4523.076923	4023.589744	4100.512821	4505.641026	4430.256410	4265.641026	3956.923077	1732.000000	1676.000000	55.459000	0.000000	0.000000	0.000000	0.000000	0	0	0	0	0	0	0	0	0	0	0	0	0	0	0	0
32.000000	4343.076923	4385.641026	4403.076923	3717.948718	4373.846154	4605.128205	4623.589744	4523.076923	4025.128205	4105.128205	4504.615385	4430.256410	4263.076923	3954.871795	1732.000000	1676.000000	55.475000	0.000000	0.000000	0.000000	0.000000	0	0	0	0	0	0	0	0	0	0	0	0	0	0	0	0
33.000000	4345.128205	4387.692308	4402.564103	3717.948718	4374.358974	4606.666667	4625.128205	4524.102564	4024.102564	4106.666667	4505.641026	4430.256410	4262.564103	3950.769231	1732.000000	1676.000000	55.475000	0.000000	0.000000	0.000000	0.000000	0	0	0	0	0	0	0	0	0	0	0	0	0	0	0	0
34.000000	4346.666667	4386.153846	4403.589744	3716.923077	4373.846154	4606.153846	4628.205128	4525.128205	4023.076923	4103.076923	4503.076923	4430.769231	4262.564103	3951.282051	1732.000000	1675.000000	55.490000	0.000000	0.000000	0.000000	0.000000	0	0	0	0	0	0	0	0	0	0	0	0	0	0	0	0
35.000000	4346.153846	4384.615385	4404.615385	3718.461538	4372.307692	4607.692308	4625.641026	4523.076923	4025.641026	4102.051282	4504.102564	4431.794872	4266.666667	3955.384615	1729.000000	1675.000000	55.490000	0.000000	0.000000	0.000000	0.000000	0	0	0	0	0	0	0	0	0	0	0	0	0	0	0	0
36.000000	4340.512821	4387.179487	4403.589744	3717.948718	4375.384615	4607.692308	4625.128205	4523.076923	4024.102564	4104.102564	4503.076923	4426.153846	4262.051282	3951.794872	1729.000000	1676.000000	55.506000	0.000000	0.000000	0.000000	0.000000	0	0	0	0	0	0	0	0	0	0	0	0	0	0	0	0
37.000000	4344.102564	4388.717949	4402.051282	3716.923077	4375.384615	4606.666667	4627.692308	4522.051282	4022.564103	4103.589744	4502.051282	4428.717949	4261.538462	3954.358974	1731.000000	1675.000000	55.506000	0.000000	0.000000	0.000000	0.000000	0	0	0	0	0	0	0	0	0	0	0	0	0	0	0	0
38.000000	4346.153846	4385.641026	4405.128205	3717.948718	4372.820513	4607.179487	4628.205128	4523.589744	4022.051282	4102.564103	4502.564103	4431.282051	4262.564103	3956.410256	1733.000000	1676.000000	55.506000	0.000000	0.000000	0.000000	0.000000	0	0	0	0	0	0	0	0	0	0	0	0	0	0	0	0
39.000000	4346.666667	4389.743590	4405.641026	3718.461538	4372.307692	4607.692308	4622.051282	4522.051282	4024.102564	4103.589744	4504.102564	4431.794872	4268.717949	3957.435897	1735.000000	1674.000000	55.522000	0.000000	0.000000	0.000000	0.000000	0	0	0	0	0	0	0	0	0	0	0	0	0	0	0	0
40.000000	4343.589744	4388.717949	4406.153846	3716.410256	4372.307692	4607.179487	4623.589744	4522.051282	4022.564103	4103.589744	4501.025641	4432.307692	4265.128205	3951.794872	1735.000000	1675.000000	55.537000	0.000000	0.000000	0.000000	0.000000	0	0	0	0	0	0	0	0	0	0	0	0	0	0	0	0
41.000000	4346.666667	4385.128205	4407.179487	3715.897436	4369.743590	4608.205128	4627.692308	4521.538462	4025.128205	4103.076923	4502.564103	4433.846154	4265.128205	3953.846154	1735.000000	1674.000000	55.537000	0.000000	0.000000	0.000000	0.000000	0	0	0	0	0	0	0	0	0	0	0	0	0	0	0	0
42.000000	4345.128205	4387.692308	4407.179487	3713.333333	4368.717949	4607.692308	4626.666667	4525.128205	4024.615385	4105.128205	4504.102564	4429.743590	4265.641026	3954.871795	1734.000000	1674.000000	55.553000	0.000000	0.000000	0.000000	0.000000	0	0	0	0	0	0	0	0	0	0	0	0	0	0	0	0
43.000000	4345.128205	4393.333333	4404.102564	3714.358974	4370.769231	4607.692308	4621.025641	4523.589744	4023.589744	4107.179487	4504.615385	4429.230769	4270.256410	3956.410256	1734.000000	1675.000000	55.553000	0.000000	0.000000	0.000000	0.000000	0	0	0	0	0	0	0	0	0	0	0	0	0	0	0	0
44.000000	4345.641026	4389.230769	4404.615385	3716.410256	4369.743590	4607.179487	4623.076923	4523.076923	4025.128205	4106.153846	4502.051282	4430.256410	4269.230769	3954.871795	1731.000000	1676.000000	55.569000	0.000000	0.000000	0.000000	0.000000	0	0	0	0	0	0	0	0	0	0	0	0	0	0	0	0
45.000000	4347.692308	4388.717949	4405.128205	3716.923077	4368.717949	4605.128205	4628.205128	4524.615385	4026.153846	4104.102564	4503.589744	4430.769231	4266.666667	3954.358974	1729.000000	1677.000000	55.569000	0.000000	0.000000	0.000000	0.000000	0	0	0	0	0	0	0	0	0	0	0	0	0	0	0	0
46.000000	4345.128205	4390.769231	4405.128205	3715.384615	4370.769231	4606.153846	4628.205128	4527.179487	4024.102564	4103.589744	4505.641026	4431.282051	4263.076923	3951.794872	1727.000000	1677.000000	55.584000	0.000000	0.000000	0.000000	0.000000	0	0	0	0	0	0	0	0	0	0	0	0	0	0	0	0
47.000000	4343.076923	4387.692308	4405.128205	3714.871795	4372.820513	4608.717949	4623.589744	4525.641026	4024.102564	4103.076923	4504.615385	4431.794872	4264.102564	3950.256410	1726.000000	1677.000000	55.584000	0.000000	0.000000	0.000000	0.000000	0	0	0	0	0	0	0	0	0	0	0	0	0	0	0	0
48.000000	4342.564103	4386.666667	4406.666667	3716.410256	4370.256410	4606.153846	4621.025641	4525.128205	4024.615385	4101.538462	4503.076923	4432.820513	4265.641026	3953.333333	1725.000000	1676.000000	55.600000	0.000000	0.000000	0.000000	0.000000	0	0	0	0	0	0	0	0	0	0	0	0	0	0	0	0
49.000000	4340.512821	4388.717949	4405.128205	3716.410256	4371.794872	4605.128205	4624.102564	4524.102564	4024.102564	4102.051282	4503.076923	4433.333333	4263.589744	3954.871795	1724.000000	1677.000000	55.600000	0.000000	0.000000	0.000000	0.000000	0	0	0	0	0	0	0	0	0	0	0	0	0	0	0	0
50.000000	4343.076923	4390.256410	4404.615385	3714.871795	4374.358974	4606.153846	4626.666667	4524.102564	4024.102564	4103.589744	4506.153846	4430.769231	4265.128205	3954.358974	1726.000000	1676.000000	55.615000	0.000000	0.000000	0.000000	0.000000	0	0	0	0	0	0	0	0	0	0	0	0	0	0	0	0
51.000000	4344.615385	4387.692308	4405.128205	3714.358974	4372.307692	4606.666667	4627.179487	4523.589744	4023.589744	4103.076923	4508.205128	4429.743590	4266.153846	3954.871795	1727.000000	1678.000000	55.615000	0.000000	0.000000	0.000000	0.000000	0	0	0	0	0	0	0	0	0	0	0	0	0	0	0	0
52.000000	4345.128205	4388.205128	4402.564103	3716.923077	4369.230769	4606.153846	4625.128205	4523.076923	4023.589744	4102.051282	4507.179487	4432.307692	4267.692308	3956.410256	1730.000000	1678.000000	55.631000	0.000000	0.000000	0.000000	0.000000	0	0	0	0	0	0	0	0	0	0	0	0	0	0	0	0
53.000000	4342.051282	4388.205128	4402.564103	3715.897436	4373.333333	4604.615385	4625.641026	4524.102564	4024.102564	4102.051282	4504.615385	4427.692308	4265.641026	3950.256410	1731.000000	1678.000000	55.631000	0.000000	0.000000	0.000000	0.000000	0	0	0	0	0	0	0	0	0	0	0	0	0	0	0	0
54.000000	4343.589744	4388.205128	4405.641026	3714.358974	4373.846154	4605.128205	4623.076923	4521.538462	4025.128205	4103.589744	4505.641026	4430.769231	4269.230769	3951.282051	1733.000000	1680.000000	55.647000	0.000000	0.000000	0.000000	0.000000	0	0	0	0	0	0	0	0	0	0	0	0	0	0	0	0
55.000000	4343.076923	4386.153846	4405.641026	3714.358974	4372.307692	4607.179487	4626.153846	4521.538462	4024.102564	4103.076923	4505.641026	4433.333333	4264.615385	3952.307692	1734.000000	1681.000000	55.647000	0.000000	0.000000	0.000000	0.000000	0	0	0	0	0	0	0	0	0	0	0	0	0	0	0	0
56.000000	4347.179487	4388.717949	4402.564103	3713.333333	4373.333333	4607.692308	4627.692308	4523.076923	4026.153846	4100.512821	4505.641026	4432.307692	4265.641026	3954.871795	1733.000000	1681.000000	55.662000	0.000000	0.000000	0.000000	0.000000	0	0	0	0	0	0	0	0	0	0	0	0	0	0	0	0
57.000000	4345.128205	4390.256410	4402.564103	3712.307692	4372.307692	4605.641026	4625.128205	4526.666667	4026.153846	4100.512821	4502.051282	4428.205128	4263.589744	3952.820513	1733.000000	1682.000000	55.662000	0.000000	0.000000	0.000000	0.000000	0	0	0	0	0	0	0	0	0	0	0	0	0	0	0	0
58.000000	4343.589744	4389.230769	4403.076923	3716.923077	4371.282051	4606.153846	4622.051282	4524.615385	4026.153846	4103.076923	4503.589744	4432.820513	4265.128205	3954.871795	1733.000000	1683.000000	55.678000	0.000000	0.000000	0.000000	0.000000	0	0	0	0	0	0	0	0	0	0	0	0	0	0	0	0
59.000000	4342.051282	4386.666667	4404.615385	3718.461538	4373.846154	4605.128205	4624.615385	4526.153846	4024.102564	4102.564103	4505.128205	4432.307692	4263.589744	3952.820513	1734.000000	1682.000000	55.678000	0.000000	0.000000	0.000000	0.000000	0	0	0	0	0	0	0	0	0	0	0	0	0	0	0	0
60.000000	4345.128205	4388.205128	4404.615385	3717.948718	4374.871795	4605.128205	4624.615385	4525.641026	4023.076923	4100.512821	4504.102564	4429.230769	4266.666667	3953.846154	1733.000000	1683.000000	55.694000	0.000000	0.000000	0.000000	0.000000	0	0	0	0	0	0	0	0	0	0	0	0	0	0	0	0
61.000000	4345.128205	4388.717949	4404.615385	3716.410256	4371.794872	4607.692308	4624.615385	4523.076923	4022.564103	4101.538462	4502.564103	4427.692308	4265.641026	3952.820513	1735.000000	1681.000000	55.694000	0.000000	0.000000	0.000000	0.000000	0	0	0	0	0	0	0	0	0	0	0	0	0	0	0	0
62.000000	4344.615385	4389.230769	4405.128205	3715.384615	4372.820513	4608.205128	4624.615385	4520.000000	4023.076923	4102.051282	4506.153846	4428.717949	4266.153846	3952.820513	1733.000000	1681.000000	55.709000	0.000000	0.000000	0.000000	0.000000	0	0	0	0	0	0	0	0	0	0	0	0	0	0	0	0
63.000000	4343.076923	4390.769231	4407.179487	3714.358974	4373.846154	4605.128205	4624.615385	4522.564103	4022.051282	4103.076923	4506.666667	4431.794872	4264.615385	3954.358974	1736.000000	1680.000000	55.709000	0.000000	0.000000	0.000000	0.000000	0	0	0	0	0	0	0	0	0	0	0	0	0	0	0	0
64.000000	4342.564103	4391.282051	4405.641026	3714.358974	4372.820513	4604.615385	4626.153846	4525.641026	4022.564103	4104.102564	4502.564103	4432.820513	4263.589744	3953.846154	1735.000000	1678.000000	55.725000	0.000000	0.000000	0.000000	0.000000	0	0	0	0	0	0	0	0	0	0	0	0	0	0	0	0
65.000000	4344.615385	4390.256410	4404.102564	3714.871795	4371.282051	4606.153846	4625.128205	4523.589744	4026.153846	4101.025641	4501.538462	4431.282051	4265.641026	3952.307692	1737.000000	1677.000000	55.725000	0.000000	0.000000	0.000000	0.000000	0	0	0	0	0	0	0	0	0	0	0	0	0	0	0	0
66.000000	4343.589744	4388.205128	4405.641026	3716.923077	4372.307692	4606.153846	4625.128205	4522.564103	4024.102564	4100.512821	4505.128205	4427.692308	4264.615385	3953.333333	1738.000000	1675.000000	55.725000	0.000000	0.000000	0.000000	0.000000	0	0	0	0	0	0	0	0	0	0	0	0	0	0	0	0
67.000000	4344.615385	4387.692308	4405.128205	3718.974359	4369.743590	4606.666667	4626.666667	4523.589744	4023.589744	4105.641026	4506.666667	4429.230769	4265.641026	3956.923077	1739.000000	1675.000000	55.741000	0.000000	0.000000	0.000000	0.000000	0	0	0	0	0	0	0	0	0	0	0	0	0	0	0	0
68.000000	4344.102564	4388.717949	4404.615385	3716.410256	4368.205128	4606.666667	4627.692308	4523.076923	4026.153846	4106.153846	4502.564103	4430.769231	4264.615385	3953.846154	1739.000000	1674.000000	55.756000	0.000000	0.000000	0.000000	0.000000	0	0	0	0	0	0	0	0	0	0	0	0	0	0	0	0
69.000000	4344.102564	4391.794872	4405.641026	3715.897436	4371.282051	4607.692308	4624.615385	4520.512821	4026.666667	4102.564103	4505.128205	4430.769231	4268.717949	3954.871795	1739.000000	1673.000000	55.756000	0.000000	0.000000	0.000000	0.000000	0	0	0	0	0	0	0	0	0	0	0	0	0	0	0	0
70.000000	4340.000000	4388.205128	4407.179487	3717.948718	4373.846154	4610.769231	4624.615385	4523.076923	4024.615385	4102.564103	4506.153846	4426.666667	4267.179487	3952.820513	1738.000000	1673.000000	55.772000	0.000000	0.000000	0.000000	0.000000	0	0	0	0	0	0	0	0	0	0	0	0	0	0	0	0
71.000000	4344.615385	4387.179487	4404.615385	3718.974359	4370.769231	4611.794872	4622.564103	4525.128205	4026.666667	4106.153846	4505.641026	4429.230769	4267.692308	3952.820513	1736.000000	1673.000000	55.772000	0.000000	0.000000	0.000000	0.000000	0	0	0	0	0	0	0	0	0	0	0	0	0	0	0	0
72.000000	4344.615385	4387.179487	4404.102564	3715.897436	4369.743590	4605.641026	4624.102564	4524.102564	4025.128205	4105.641026	4505.128205	4432.307692	4263.589744	3952.307692	1734.000000	1674.000000	55.787000	0.000000	0.000000	0.000000	0.000000	0	0	0	0	0	0	0	0	0	0	0	0	0	0	0	0
73.000000	4343.589744	4388.717949	4405.128205	3717.435897	4372.307692	4604.102564	4624.615385	4520.000000	4022.564103	4101.538462	4507.179487	4432.307692	4267.692308	3955.897436	1733.000000	1674.000000	55.787000	0.000000	0.000000	0.000000	0.000000	1	1	0	0	0	0	0	0	0	0	0	0	0	0	0	0
74.000000	4344.102564	4386.666667	4406.153846	3718.974359	4372.820513	4606.153846	4625.128205	4523.589744	4023.589744	4100.000000	4504.102564	4425.641026	4267.692308	3953.846154	1733.000000	1675.000000	55.803000	0.000000	0.000000	0.000000	0.000000	1	1	0	0	0	0	0	0	0	0	0	0	0	0	0	0
75.000000	4348.717949	4386.666667	4406.666667	3718.974359	4369.743590	4606.153846	4624.615385	4523.076923	4025.641026	4103.076923	4503.076923	4427.692308	4267.692308	3956.923077	1732.000000	1675.000000	55.803000	0.000000	0.000000	0.000000	0.000000	1	1	0	0	0	0	0	0	0	0	0	0	0	0	0	0
76.000000	4345.641026	4386.666667	4408.717949	3716.923077	4369.743590	4606.153846	4626.666667	4521.025641	4023.589744	4103.076923	4504.615385	4430.769231	4265.128205	3954.871795	1732.000000	1675.000000	55.819000	0.000000	0.000000	0.000000	0.000000	1	1	0	0	0	0	0	0	0	0	0	0	0	0	0	0
77.000000	4343.589744	4387.179487	4406.153846	3716.923077	4372.307692	4607.692308	4625.128205	4521.025641	4023.076923	4101.538462	4505.641026	4430.769231	4267.692308	3953.846154	1732.000000	1676.000000	55.819000	0.000000	0.000000	0.000000	0.000000	1	1	0	0	0	0	0	0	0	0	0	0	0	0	0	0
78.000000	4343.076923	4386.666667	4403.589744	3717.435897	4373.333333	4605.128205	4623.589744	4525.128205	4023.589744	4102.051282	4504.102564	4427.692308	4265.128205	3953.333333	1731.000000	1675.000000	55.834000	0.000000	0.000000	0.000000	0.000000	1	1	0	0	0	0	0	0	0	0	0	0	0	0	0	0
79.000000	4345.641026	4387.692308	4404.615385	3717.948718	4372.307692	4605.641026	4625.641026	4523.589744	4026.153846	4101.025641	4503.589744	4428.717949	4262.564103	3953.846154	1731.000000	1677.000000	55.834000	0.000000	0.000000	0.000000	0.000000	1	1	0	0	0	0	0	0	0	0	0	0	0	0	0	0
80.000000	4345.128205	4389.230769	4407.692308	3717.435897	4370.256410	4607.692308	4626.666667	4522.564103	4025.641026	4100.000000	4502.051282	4429.230769	4262.564103	3952.820513	1733.000000	1676.000000	55.850000	0.000000	0.000000	0.000000	0.000000	1	1	0	0	0	0	0	0	0	0	0	0	0	0	0	0
81.000000	4343.076923	4387.692308	4405.128205	3715.897436	4371.282051	4606.666667	4625.641026	4523.076923	4023.589744	4101.025641	4502.051282	4427.179487	4264.615385	3952.820513	1731.000000	1678.000000	55.850000	0.000000	0.000000	0.000000	0.000000	1	1	0	0	0	0	0	0	0	0	0	0	0	0	0	0
82.000000	4345.128205	4388.205128	4404.615385	3715.384615	4370.256410	4607.692308	4624.102564	4522.051282	4024.615385	4101.538462	4504.615385	4430.769231	4266.153846	3956.410256	1731.000000	1679.000000	55.866000	0.000000	0.000000	0.000000	0.000000	1	1	0	0	0	0	0	0	0	0	0	0	0	0	0	0
83.000000	4345.641026	4389.230769	4405.128205	3713.333333	4369.230769	4608.205128	4624.615385	4522.564103	4024.615385	4102.564103	4503.589744	4430.769231	4264.615385	3955.384615	1731.000000	1679.000000	55.866000	0.000000	0.000000	0.000000	0.000000	1	1	0	0	0	0	0	0	0	0	0	0	0	0	0	0
84.000000	4345.128205	4389.743590	4403.076923	3712.820513	4368.205128	4606.666667	4623.076923	4523.589744	4022.564103	4104.102564	4502.564103	4428.717949	4268.717949	3955.897436	1731.000000	1679.000000	55.881000	0.000000	0.000000	0.000000	0.000000	1	1	0	0	0	0	0	0	0	0	0	0	0	0	0	0
85.000000	4344.102564	4386.153846	4403.589744	3714.871795	4370.256410	4606.666667	4624.102564	4523.076923	4022.051282	4103.076923	4502.051282	4427.692308	4266.666667	3952.307692	1731.000000	1679.000000	55.881000	0.000000	0.000000	0.000000	0.000000	1	1	0	0	0	0	0	0	0	0	0	0	0	0	0	0
86.000000	4345.641026	4388.717949	4403.589744	3717.435897	4371.794872	4607.692308	4625.128205	4523.076923	4024.615385	4103.076923	4503.589744	4432.307692	4267.179487	3954.358974	1731.000000	1679.000000	55.897000	0.000000	0.000000	0.000000	0.000000	1	1	0	0	0	0	0	0	0	0	0	0	0	0	0	0
87.000000	4343.076923	4391.282051	4404.102564	3715.897436	4373.333333	4606.666667	4626.666667	4525.128205	4023.076923	4104.615385	4501.025641	4430.256410	4264.615385	3953.333333	1730.000000	1679.000000	55.897000	0.000000	0.000000	0.000000	0.000000	1	1	0	0	0	0	0	0	0	0	0	0	0	0	0	0
88.000000	4345.641026	4391.794872	4404.615385	3714.358974	4372.820513	4609.230769	4624.102564	4523.589744	4024.615385	4103.589744	4504.615385	4430.769231	4268.717949	3956.410256	1729.000000	1679.000000	55.912000	0.000000	0.000000	0.000000	0.000000	1	1	0	0	0	0	0	0	0	0	0	0	0	0	0	0
89.000000	4345.641026	4389.230769	4406.153846	3713.333333	4371.282051	4608.205128	4623.076923	4522.564103	4025.641026	4101.538462	4506.666667	4432.820513	4264.102564	3954.871795	1730.000000	1678.000000	55.912000	0.000000	0.000000	0.000000	0.000000	1	1	0	0	0	0	0	0	0	0	0	0	0	0	0	0
90.000000	4345.641026	4390.256410	4406.666667	3714.871795	4371.794872	4606.666667	4623.589744	4521.538462	4026.153846	4104.102564	4506.666667	4431.794872	4264.615385	3954.358974	1730.000000	1679.000000	55.928000	0.000000	0.000000	0.000000	0.000000	1	1	0	0	0	0	0	0	0	0	0	0	0	0	0	0
91.000000	4341.025641	4389.230769	4406.666667	3716.410256	4373.333333	4608.717949	4626.153846	4522.564103	4024.102564	4104.615385	4504.102564	4429.230769	4263.076923	3950.769231	1729.000000	1677.000000	55.928000	0.000000	0.000000	0.000000	0.000000	1	1	0	0	0	0	0	0	0	0	0	0	0	0	0	0
92.000000	4343.076923	4389.230769	4403.076923	3716.923077	4373.333333	4609.743590	4624.615385	4522.564103	4024.102564	4101.538462	4506.153846	4431.282051	4264.615385	3952.307692	1728.000000	1677.000000	55.944000	0.000000	0.000000	0.000000	0.000000	1	1	0	0	0	0	0	0	0	0	0	0	0	0	0	0
93.000000	4345.641026	4387.692308	4402.051282	3716.923077	4370.769231	4606.153846	4623.589744	4524.615385	4025.128205	4102.051282	4505.128205	4429.230769	4262.564103	3952.307692	1730.000000	1677.000000	55.944000	0.000000	0.000000	0.000000	0.000000	1	1	0	0	0	0	0	0	0	0	0	0	0	0	0	0
94.000000	4346.666667	4386.666667	4404.102564	3716.410256	4369.743590	4607.179487	4624.615385	4525.128205	4024.615385	4103.076923	4504.102564	4428.717949	4264.102564	3952.307692	1731.000000	1675.000000	55.959000	0.000000	0.000000	0.000000	0.000000	1	1	0	0	0	0	0	0	0	0	0	0	0	0	0	0
95.000000	4342.564103	4387.692308	4406.153846	3715.897436	4370.769231	4609.230769	4625.641026	4524.615385	4022.564103	4102.051282	4505.128205	4430.256410	4264.615385	3950.256410	1731.000000	1677.000000	55.959000	0.000000	0.000000	0.000000	0.000000	1	1	0	0	0	0	0	0	0	0	0	0	0	0	0	0
96.000000	4342.564103	4386.153846	4405.128205	3717.435897	4373.846154	4608.205128	4623.589744	4522.051282	4024.102564	4104.615385	4505.641026	4430.256410	4265.641026	3951.794872	1732.000000	1675.000000	55.975000	0.000000	0.000000	0.000000	0.000000	1	1	0	0	0	0	0	0	0	0	0	0	0	0	0	0
97.000000	4344.615385	4384.615385	4405.641026	3716.923077	4374.358974	4606.666667	4623.589744	4522.564103	4024.615385	4107.179487	4504.615385	4428.205128	4266.666667	3954.871795	1732.000000	1675.000000	55.975000	0.000000	0.000000	0.000000	0.000000	1	1	0	0	0	0	0	0	0	0	0	0	0	0	0	0
98.000000	4344.615385	4385.641026	4406.666667	3714.871795	4372.820513	4604.102564	4627.692308	4522.564103	4022.564103	4102.564103	4505.128205	4429.230769	4265.128205	3954.358974	1734.000000	1674.000000	55.991000	0.000000	0.000000	0.000000	0.000000	1	1	0	0	0	0	0	0	0	0	0	0	0	0	0	0
99.000000	4345.641026	4388.717949	4406.666667	3717.948718	4370.769231	4603.589744	4627.179487	4522.051282	4023.589744	4099.487179	4506.153846	4431.794872	4266.666667	3951.282051	1734.000000	1674.000000	55.991000	0.000000	0.000000	0.000000	0.000000	1	1	0	0	0	0	0	0	0	0	0	0	0	0	0	0
100.000000	4346.153846	4386.666667	4405.128205	3720.000000	4372.820513	4606.666667	4625.641026	4524.102564	4025.128205	4101.538462	4504.615385	4429.743590	4265.128205	3950.769231	1734.000000	1674.000000	56.006000	0.000000	0.000000	0.000000	0.000000	1	1	0	0	0	0	0	0	0	0	0	0	0	0	0	0
101.000000	4347.692308	4386.153846	4401.025641	3716.923077	4371.794872	4607.179487	4625.641026	4525.128205	4024.102564	4104.615385	4503.589744	4429.743590	4265.641026	3956.923077	1733.000000	1674.000000	56.006000	0.000000	0.000000	0.000000	0.000000	1	1	0	0	0	0	0	0	0	0	0	0	0	0	0	0
102.000000	4344.102564	4385.641026	4400.512821	3713.333333	4370.256410	4604.102564	4628.205128	4525.128205	4022.051282	4103.589744	4502.564103	4429.230769	4263.076923	3953.846154	1734.000000	1673.000000	56.022000	0.000000	0.000000	0.000000	0.000000	1	1	0	0	0	0	0	0	0	0	0	0	0	0	0	0
103.000000	4345.128205	4388.717949	4402.051282	3714.871795	4369.743590	4605.641026	4626.153846	4521.538462	4025.128205	4100.512821	4504.102564	4432.307692	4266.666667	3952.820513	1733.000000	1673.000000	56.022000	0.000000	0.000000	0.000000	0.000000	1	1	0	0	0	0	0	0	0	0	0	0	0	0	0	0
104.000000	4346.153846	4390.256410	4405.128205	3714.871795	4372.307692	4606.666667	4625.128205	4523.589744	4025.641026	4100.512821	4503.076923	4429.230769	4263.076923	3952.307692	1732.000000	1675.000000	56.037000	0.000000	0.000000	0.000000	0.000000	1	1	0	0	0	0	0	0	0	0	0	0	0	0	0	0
105.000000	4347.692308	4391.282051	4405.128205	3715.384615	4372.307692	4606.153846	4624.102564	4524.102564	4024.615385	4103.076923	4503.076923	4429.230769	4263.589744	3955.384615	1732.000000	1674.000000	56.037000	0.000000	0.000000	0.000000	0.000000	1	1	0	0	0	0	0	0	0	0	0	0	0	0	0	0
106.000000	4343.076923	4388.205128	4406.666667	3714.358974	4371.282051	4605.641026	4626.153846	4525.128205	4022.564103	4102.564103	4502.564103	4429.743590	4261.538462	3951.794872	1732.000000	1676.000000	56.053000	0.000000	0.000000	0.000000	0.000000	1	1	0	0	0	0	0	0	0	0	0	0	0	0	0	0
107.000000	4345.641026	4388.717949	4405.128205	3714.358974	4370.256410	4607.692308	4625.128205	4522.051282	4023.076923	4101.538462	4503.589744	4430.256410	4267.692308	3953.846154	1732.000000	1674.000000	56.053000	0.000000	0.000000	0.000000	0.000000	1	1	0	0	0	0	0	0	0	0	0	0	0	0	0	0
108.000000	4346.153846	4389.230769	4405.128205	3713.333333	4369.743590	4606.666667	4625.128205	4524.102564	4021.538462	4102.051282	4502.051282	4430.256410	4267.179487	3952.307692	1731.000000	1676.000000	56.069000	0.000000	0.000000	0.000000	0.000000	1	1	0	0	0	0	0	0	0	0	0	0	0	0	0	0
109.000000	4346.153846	4389.230769	4406.153846	3713.846154	4371.282051	4606.153846	4626.153846	4525.128205	4024.615385	4101.025641	4503.589744	4431.794872	4266.153846	3952.307692	1733.000000	1675.000000	56.069000	0.000000	0.000000	0.000000	0.000000	1	1	0	0	0	0	0	0	0	0	0	0	0	0	0	0
110.000000	4344.615385	4389.230769	4405.641026	3715.384615	4370.256410	4609.230769	4625.641026	4524.615385	4027.179487	4101.538462	4505.128205	4429.230769	4264.615385	3953.846154	1733.000000	1676.000000	56.084000	0.000000	0.000000	0.000000	0.000000	1	1	0	0	0	0	0	0	0	0	0	0	0	0	0	0
111.000000	4344.615385	4391.794872	4405.128205	3715.897436	4370.256410	4609.230769	4625.128205	4523.076923	4025.128205	4104.102564	4503.589744	4428.205128	4268.205128	3956.410256	1734.000000	1677.000000	56.084000	0.000000	0.000000	0.000000	0.000000	1	1	0	0	0	0	0	0	0	0	0	0	0	0	0	0
112.000000	4342.564103	4390.769231	4405.641026	3713.846154	4371.794872	4605.128205	4627.692308	4522.564103	4024.102564	4103.076923	4501.025641	4429.230769	4266.153846	3954.358974	1733.000000	1676.000000	56.100000	0.000000	0.000000	0.000000	0.000000	1	1	0	0	0	0	0	0	0	0	0	0	0	0	0	0
113.000000	4346.153846	4386.153846	4405.128205	3714.871795	4372.820513	4604.615385	4627.692308	4521.025641	4026.153846	4100.000000	4503.076923	4428.717949	4262.051282	3953.333333	1734.000000	1676.000000	56.100000	0.000000	0.000000	0.000000	0.000000	1	1	0	0	0	0	0	0	0	0	0	0	0	0	0	0
114.000000	4348.205128	4385.641026	4405.641026	3717.435897	4370.256410	4607.692308	4625.128205	4522.051282	4027.179487	4100.000000	4505.128205	4429.743590	4265.128205	3954.358974	1733.000000	1676.000000	56.116000	0.000000	0.000000	0.000000	0.000000	1	1	0	0	0	0	0	0	0	0	0	0	0	0	0	0
115.000000	4342.564103	4387.179487	4407.692308	3714.871795	4371.794872	4608.205128	4626.666667	4523.076923	4026.153846	4102.051282	4503.076923	4429.230769	4265.641026	3951.794872	1734.000000	1677.000000	56.116000	0.000000	0.000000	0.000000	0.000000	1	1	0	0	0	0	0	0	0	0	0	0	0	0	0	0
116.000000	4342.051282	4388.717949	4406.153846	3714.871795	4371.794872	4607.179487	4628.205128	4523.589744	4025.128205	4103.076923	4504.615385	4429.743590	4265.128205	3952.820513	1733.000000	1676.000000	56.131000	0.000000	0.000000	0.000000	0.000000	1	1	0	0	0	0	0	0	0	0	0	0	0	0	0	0
117.000000	4343.076923	4387.692308	4406.153846	3717.435897	4370.769231	4605.128205	4628.717949	4525.128205	4022.564103	4103.589744	4508.205128	4429.230769	4262.564103	3954.871795	1732.000000	1677.000000	56.131000	0.000000	0.000000	0.000000	0.000000	1	1	0	0	0	0	0	0	0	0	0	0	0	0	0	0
118.000000	4344.615385	4388.717949	4407.692308	3717.435897	4370.769231	4606.666667	4625.128205	4523.589744	4024.615385	4104.102564	4507.692308	4430.769231	4268.205128	3956.923077	1734.000000	1677.000000	56.147000	0.000000	0.000000	0.000000	0.000000	1	1	0	0	0	0	0	0	0	0	0	0	0	0	0	0
119.000000	4341.538462	4386.153846	4406.153846	3715.897436	4371.794872	4608.717949	4624.615385	4520.512821	4026.153846	4101.538462	4504.615385	4427.179487	4267.692308	3952.820513	1733.000000	1678.000000	56.147000	0.000000	0.000000	0.000000	0.000000	1	1	0	0	0	0	0	0	0	0	0	0	0	0	0	0
120.000000	4343.589744	4386.666667	4402.564103	3717.435897	4369.743590	4609.230769	4624.102564	4520.512821	4025.128205	4101.538462	4506.153846	4429.743590	4267.692308	3953.846154	1735.000000	1677.000000	56.162000	0.000000	0.000000	0.000000	0.000000	1	1	0	0	0	0	0	0	0	0	0	0	0	0	0	0
121.000000	4341.538462	4387.179487	4403.076923	3716.410256	4369.230769	4609.743590	4625.641026	4524.102564	4022.564103	4103.589744	4503.589744	4431.794872	4264.102564	3952.307692	1734.000000	1678.000000	56.162000	0.000000	0.000000	0.000000	0.000000	1	1	0	0	0	0	0	0	0	0	0	0	0	0	0	0
122.000000	4343.589744	4388.717949	4404.102564	3714.871795	4371.794872	4609.743590	4625.128205	4522.564103	4024.615385	4101.538462	4504.102564	4433.846154	4267.692308	3954.871795	1735.000000	1678.000000	56.178000	0.000000	0.000000	0.000000	0.000000	1	1	0	0	0	0	0	0	0	0	0	0	0	0	0	0
123.000000	4345.128205	4385.641026	4404.615385	3715.384615	4373.846154	4605.641026	4625.641026	4524.615385	4025.128205	4100.000000	4506.153846	4433.333333	4267.179487	3954.358974	1736.000000	1678.000000	56.178000	0.000000	0.000000	0.000000	0.000000	1	1	0	0	0	0	0	0	0	0	0	0	0	0	0	0
124.000000	4348.717949	4385.641026	4402.564103	3717.948718	4371.282051	4605.128205	4621.538462	4523.589744	4026.153846	4102.564103	4506.666667	4432.820513	4269.230769	3956.923077	1736.000000	1678.000000	56.194000	0.000000	0.000000	0.000000	0.000000	1	1	0	0	0	0	0	0	0	0	0	0	0	0	0	0
125.000000	4346.666667	4388.205128	4403.589744	3716.923077	4369.743590	4607.179487	4622.564103	4523.589744	4024.615385	4103.076923	4502.051282	4428.717949	4265.641026	3955.897436	1735.000000	1677.000000	56.194000	0.000000	0.000000	0.000000	0.000000	1	1	0	0	0	0	0	0	0	0	0	0	0	0	0	0
126.000000	4345.128205	4390.256410	4405.641026	3715.384615	4369.743590	4606.666667	4629.230769	4524.102564	4024.102564	4101.025641	4500.512821	4430.769231	4267.692308	3956.410256	1735.000000	1679.000000	56.209000	0.000000	0.000000	0.000000	0.000000	1	1	0	0	0	0	0	0	0	0	0	0	0	0	0	0
127.000000	4344.102564	4387.692308	4407.179487	3714.871795	4370.769231	4605.641026	4628.205128	4526.666667	4023.589744	4100.512821	4502.051282	4432.820513	4267.179487	3952.307692	1738.000000	1680.000000	56.209000	0.000000	0.000000	0.000000	0.000000	1	1	0	0	0	0	0	0	0	0	0	0	0	0	0	0
128.000000	4345.128205	4387.692308	4405.128205	3715.384615	4372.307692	4606.153846	4621.025641	4524.615385	4022.051282	4103.076923	4504.102564	4429.743590	4265.128205	3950.256410	1742.000000	1682.000000	56.225000	0.000000	0.000000	0.000000	0.000000	1	1	0	0	0	0	0	0	0	0	0	0	0	0	0	0
0.000000	4344.102564	4390.256410	4405.128205	3715.897436	4372.307692	4606.153846	4621.538462	4522.564103	4021.538462	4105.128205	4503.076923	4428.205128	4265.641026	3951.794872	1745.000000	1684.000000	56.225000	0.000000	0.000000	0.000000	0.000000	1	1	0	0	0	0	0	0	0	0	0	0	0	0	0	0
1.000000	4342.564103	4390.256410	4405.641026	3716.923077	4373.333333	4607.179487	4625.641026	4524.615385	4024.615385	4103.589744	4500.000000	4430.769231	4266.153846	3954.358974	1748.000000	1686.000000	56.241000	0.000000	0.000000	0.000000	0.000000	1	1	0	0	0	0	0	0	0	0	0	0	0	0	0	0
2.000000	4344.615385	4390.256410	4404.615385	3716.923077	4372.820513	4609.743590	4624.615385	4524.615385	4025.128205	4102.564103	4502.564103	4431.794872	4265.641026	3955.384615	1750.000000	1688.000000	56.241000	0.000000	0.000000	0.000000	0.000000	1	1	0	0	0	0	0	0	0	0	0	0	0	0	0	0
3.000000	4345.128205	4388.205128	4401.538462	3715.897436	4371.282051	4608.717949	4626.153846	4523.589744	4022.051282	4102.051282	4506.153846	4429.743590	4265.128205	3952.307692	1753.000000	1691.000000	56.256000	0.000000	0.000000	0.000000	0.000000	1	1	0	0	0	0	0	0	0	0	0	0	0	0	0	0
4.000000	4345.128205	4386.153846	4400.512821	3717.435897	4370.769231	4607.179487	4626.666667	4523.076923	4023.589744	4101.538462	4504.615385	4430.256410	4270.769231	3953.333333	1756.000000	1693.000000	56.256000	0.000000	0.000000	0.000000	0.000000	1	1	0	0	0	0	0	0	0	0	0	0	0	0	0	0
5.000000	4342.564103	4385.128205	4403.589744	3717.435897	4372.820513	4607.179487	4626.153846	4524.615385	4024.615385	4101.025641	4501.025641	4429.230769	4266.153846	3953.846154	1760.000000	1695.000000	56.272000	0.000000	0.000000	0.000000	0.000000	1	1	0	0	0	0	0	0	0	0	0	0	0	0	0	0
6.000000	4345.128205	4388.205128	4403.589744	3716.923077	4371.794872	4608.205128	4624.615385	4524.102564	4025.128205	4102.564103	4503.589744	4431.282051	4266.153846	3955.897436	1763.000000	1697.000000	56.272000	0.000000	0.000000	0.000000	0.000000	1	1	0	0	0	0	0	0	0	0	0	0	0	0	0	0
7.000000	4345.128205	4387.692308	4404.615385	3713.333333	4372.307692	4607.692308	4625.641026	4525.128205	4025.128205	4103.076923	4505.128205	4429.743590	4265.128205	3950.256410	1765.000000	1700.000000	56.288000	0.000000	0.000000	0.000000	0.000000	1	1	0	0	0	0	0	0	0	0	0	0	0	0	0	0
8.000000	4346.153846	4388.717949	4405.641026	3714.871795	4372.307692	4606.153846	4624.615385	4524.615385	4025.641026	4103.589744	4505.641026	4430.256410	4267.179487	3951.282051	1771.000000	1700.000000	56.297000	0.000000	0.000000	0.000000	0.000000	1	1	0	0	0	0	0	0	0	0	0	0	0	0	0	0
9.000000	4344.615385	4386.153846	4405.128205	3717.948718	4374.358974	4607.179487	4625.128205	4526.153846	4023.076923	4102.564103	4503.589744	4430.769231	4263.076923	3951.794872	1774.000000	1702.000000	56.297000	0.000000	0.000000	0.000000	0.000000	1	1	0	0	0	0	0	0	0	0	0	0	0	0	0	0
10.000000	4345.641026	4386.666667	4403.076923	3717.435897	4374.871795	4610.769231	4622.051282	4523.076923	4025.128205	4101.025641	4503.589744	4430.256410	4266.666667	3952.307692	1779.000000	1702.000000	56.297000	0.000000	0.000000	0.000000	0.000000	1	1	0	0	0	0	0	0	0	0	0	0	0	0	0	0
11.000000	4342.564103	4388.205128	4405.641026	3714.358974	4372.820513	4609.743590	4622.051282	4522.564103	4023.589744	4101.025641	4503.076923	4425.128205	4267.179487	3949.743590	1780.000000	1701.000000	56.312000	0.000000	0.000000	0.000000	0.000000	1	1	0	0	0	0	0	0	0	0	0	0	0	0	0	0
12.000000	4344.615385	4387.692308	4404.102564	3717.435897	4372.307692	4608.717949	4624.615385	4523.076923	4022.564103	4102.051282	4506.666667	4429.743590	4267.179487	3952.307692	1783.000000	1701.000000	56.312000	0.000000	0.000000	0.000000	0.000000	1	1	0	0	0	0	0	0	0	0	0	0	0	0	0	0
13.000000	4347.692308	4386.153846	4403.076923	3719.487179	4373.333333	4608.205128	4626.666667	4524.102564	4023.076923	4103.076923	4507.692308	4432.307692	4264.615385	3951.794872	1786.000000	1701.000000	56.328000	0.000000	0.000000	0.000000	0.000000	1	1	0	0	0	0	0	0	0	0	0	0	0	0	0	0
14.000000	4346.666667	4387.692308	4404.615385	3717.948718	4372.307692	4606.153846	4625.128205	4521.025641	4024.102564	4105.128205	4506.666667	4428.717949	4267.692308	3952.307692	1790.000000	1701.000000	56.343000	0.000000	0.000000	0.000000	0.000000	1	1	0	0	0	0	0	0	0	0	0	0	0	0	0	0
15.000000	4340.000000	4386.666667	4406.153846	3716.410256	4370.769231	4605.128205	4625.128205	4523.076923	4023.076923	4104.615385	4505.128205	4428.717949	4264.615385	3954.358974	1795.000000	1703.000000	56.343000	0.000000	0.000000	0.000000	0.000000	1	1	0	0	0	0	0	0	0	0	0	0	0	0	0	0
16.000000	4341.025641	4385.641026	4405.641026	3716.410256	4372.820513	4606.153846	4627.179487	4525.641026	4023.076923	4104.102564	4504.615385	4433.333333	4261.025641	3955.384615	1799.000000	1707.000000	56.343000	0.000000	0.000000	0.000000	0.000000	1	1	0	0	0	0	0	0	0	0	0	0	0	0	0	0
17.000000	4344.615385	4389.743590	4408.205128	3715.384615	4370.769231	4608.205128	4628.205128	4524.615385	4023.589744	4104.615385	4505.128205	4433.333333	4262.564103	3951.282051	1804.000000	1712.000000	56.359000	0.000000	0.000000	0.000000	0.000000	1	1	0	0	0	0	0	0	0	0	0	0	0	0	0	0
18.000000	4341.025641	4390.769231	4406.666667	3714.871795	4369.743590	4606.153846	4624.615385	4524.615385	4023.589744	4105.128205	4504.615385	4432.307692	4264.615385	3947.692308	1806.000000	1716.000000	56.359000	0.000000	0.000000	0.000000	0.000000	1	1	0	0	0	0	0	0	0	0	0	0	0	0	0	0
19.000000	4341.538462	4389.230769	4403.589744	3715.897436	4372.820513	4603.076923	4623.589744	4524.615385	4025.641026	4103.589744	4505.641026	4433.846154	4263.589744	3950.256410	1808.000000	1721.000000	56.375000	0.000000	0.000000	0.000000	0.000000	1	1	0	0	0	0	0	0	0	0	0	0	0	0	0	0
20.000000	4345.641026	4387.179487	4404.615385	3714.358974	4373.846154	4603.589744	4629.743590	4526.153846	4024.615385	4102.051282	4505.128205	4431.794872	4262.051282	3952.307692	1808.000000	1730.000000	56.375000	0.000000	0.000000	0.000000	0.000000	1	1	0	0	0	0	0	0	0	0	0	0	0	0	0	0
21.000000	4346.153846	4389.743590	4405.128205	3714.358974	4371.282051	4606.666667	4628.717949	4524.102564	4024.102564	4101.025641	4505.128205	4432.307692	4267.179487	3953.333333	1811.000000	1739.000000	56.390000	0.000000	0.000000	0.000000	0.000000	1	1	0	0	0	0	0	0	0	0	0	0	0	0	0	0
22.000000	4341.025641	4389.230769	4402.564103	3715.384615	4372.820513	4604.615385	4624.615385	4523.076923	4023.589744	4102.051282	4504.615385	4430.769231	4266.153846	3949.230769	1813.000000	1746.000000	56.390000	0.000000	0.000000	0.000000	0.000000	1	1	0	0	0	0	0	0	0	0	0	0	0	0	0	0
23.000000	4344.102564	4390.256410	4401.538462	3716.410256	4373.333333	4606.153846	4622.564103	4522.564103	4024.102564	4105.641026	4505.128205	4429.743590	4267.179487	3952.307692	1816.000000	1757.000000	56.406000	0.000000	0.000000	0.000000	0.000000	1	1	0	0	0	0	0	0	0	0	0	0	0	0	0	0
24.000000	4343.589744	4390.256410	4406.666667	3714.358974	4370.769231	4611.282051	4625.128205	4526.666667	4023.589744	4105.128205	4504.615385	4425.641026	4264.615385	3953.333333	1818.000000	1762.000000	56.422000	0.000000	0.000000	0.000000	0.000000	1	1	0	0	0	0	0	0	0	0	0	0	0	0	0	0
25.000000	4343.589744	4391.282051	4406.666667	3713.846154	4371.282051	4612.307692	4627.179487	4523.589744	4024.102564	4102.564103	4506.666667	4427.692308	4267.692308	3954.358974	1819.000000	1771.000000	56.422000	0.000000	0.000000	0.000000	0.000000	1	1	0	0	0	0	0	0	0	0	0	0	0	0	0	0
26.000000	4341.538462	4389.230769	4404.102564	3714.871795	4373.333333	4606.153846	4627.179487	4522.051282	4024.102564	4103.076923	4505.128205	4429.230769	4264.615385	3949.230769	1821.000000	1778.000000	56.422000	0.000000	0.000000	0.000000	0.000000	1	1	0	0	0	0	0	0	0	0	0	0	0	0	0	0
27.000000	4344.615385	4388.205128	4403.589744	3717.435897	4372.820513	4605.641026	4620.512821	4523.589744	4024.102564	4105.641026	4504.615385	4430.769231	4265.641026	3951.282051	1824.000000	1785.000000	56.437000	0.000000	0.000000	0.000000	0.000000	1	1	0	0	0	0	0	0	0	0	0	0	0	0	0	0
28.000000	4345.641026	4386.153846	4407.179487	3717.435897	4372.820513	4610.769231	4622.051282	4525.641026	4023.076923	4107.179487	4504.615385	4429.230769	4262.564103	3949.230769	1831.000000	1793.000000	56.437000	0.000000	0.000000	0.000000	0.000000	1	1	0	0	0	0	0	0	0	0	0	0	0	0	0	0
29.000000	4346.666667	4387.179487	4406.666667	3715.384615	4374.358974	4611.794872	4630.256410	4522.564103	4024.102564	4107.179487	4508.717949	4430.256410	4263.589744	3944.615385	1838.000000	1804.000000	56.453000	0.000000	0.000000	0.000000	0.000000	1	1	0	0	0	0	0	0	0	0	0	0	0	0	0	0
30.000000	4344.615385	4386.666667	4404.615385	3715.384615	4372.820513	4608.717949	4632.820513	4523.076923	4026.153846	4106.153846	4509.743590	4431.282051	4262.564103	3936.410256	1850.000000	1814.000000	56.468000	0.000000	0.000000	0.000000	0.000000	1	1	0	0	0	0	0	0	0	0	0	0	0	0	0	0
31.000000	4345.641026	4386.666667	4404.615385	3716.923077	4370.256410	4609.230769	4625.128205	4526.666667	4026.153846	4108.205128	4511.282051	4433.333333	4261.538462	3938.461538	1858.000000	1826.000000	56.468000	0.000000	0.000000	0.000000	0.000000	1	1	0	0	0	0	0	0	0	0	0	0	0	0	0	0
32.000000	4344.615385	4388.205128	4404.102564	3717.435897	4370.256410	4610.256410	4621.538462	4525.128205	4026.153846	4109.230769	4511.794872	4433.846154	4261.025641	3942.051282	1863.000000	1836.000000	56.468000	0.000000	0.000000	0.000000	0.000000	1	1	0	0	0	0	0	0	0	0	0	0	0	0	0	0
33.000000	4344.102564	4389.743590	4402.564103	3720.000000	4370.256410	4604.615385	4623.589744	4522.051282	4024.615385	4108.205128	4511.794872	4434.871795	4263.589744	3940.512821	1866.000000	1845.000000	56.484000	0.000000	0.000000	0.000000	0.000000	1	1	0	0	0	0	0	0	0	0	0	0	0	0	0	0
34.000000	4344.615385	4387.692308	4403.589744	3720.000000	4369.230769	4604.615385	4628.717949	4523.076923	4024.102564	4106.666667	4510.256410	4433.846154	4262.051282	3936.923077	1871.000000	1856.000000	56.484000	0.000000	0.000000	0.000000	0.000000	1	1	0	0	0	0	0	0	0	0	0	0	0	0	0	0
35.000000	4348.205128	4386.153846	4402.564103	3719.487179	4370.256410	4609.230769	4626.666667	4528.717949	4025.128205	4108.205128	4513.333333	4432.307692	4257.948718	3934.358974	1874.000000	1866.000000	56.500000	0.000000	0.000000	0.000000	0.000000	1	1	0	0	0	0	0	0	0	0	0	0	0	0	0	0
36.000000	4349.743590	4387.692308	4401.025641	3720.000000	4373.333333	4609.230769	4622.051282	4527.179487	4027.692308	4109.743590	4516.410256	4432.307692	4260.000000	3929.743590	1876.000000	1875.000000	56.515000	0.000000	0.000000	0.000000	0.000000	1	1	0	0	0	0	0	0	0	0	0	0	0	0	0	0
37.000000	4350.256410	4385.641026	4404.102564	3717.948718	4374.871795	4606.153846	4627.179487	4524.102564	4025.128205	4106.153846	4510.769231	4430.256410	4264.615385	3929.230769	1877.000000	1879.000000	56.515000	0.000000	0.000000	0.000000	0.000000	1	1	0	0	0	0	0	0	0	0	0	0	0	0	0	0
38.000000	4350.769231	4384.615385	4404.615385	3715.384615	4372.820513	4608.205128	4630.256410	4521.025641	4025.128205	4101.025641	4505.641026	4429.743590	4268.205128	3944.615385	1878.000000	1884.000000	56.515000	0.000000	0.000000	0.000000	0.000000	1	1	0	0	0	0	0	0	0	0	0	0	0	0	0	0
39.000000	4345.641026	4386.153846	4407.692308	3712.820513	4370.769231	4606.666667	4625.641026	4526.153846	4025.641026	4100.512821	4505.128205	4430.256410	4265.128205	3954.871795	1884.000000	1884.000000	56.531000	0.000000	0.000000	0.000000	0.000000	1	1	0	0	0	0	0	0	0	0	0	0	0	0	0	0
40.000000	4341.025641	4389.230769	4411.794872	3712.820513	4373.333333	4608.205128	4620.512821	4523.076923	4026.666667	4103.589744	4503.076923	4432.307692	4267.179487	3955.384615	1893.000000	1886.000000	56.531000	0.000000	0.000000	0.000000	0.000000	1	1	0	0	0	0	0	0	0	0	0	0	0	0	0	0
41.000000	4338.974359	4388.717949	4411.282051	3712.820513	4373.333333	4609.230769	4621.538462	4522.564103	4028.205128	4103.589744	4498.974359	4429.230769	4267.179487	3953.333333	1905.000000	1886.000000	56.547000	0.000000	0.000000	0.000000	0.000000	1	1	0	0	0	0	0	0	0	0	0	0	0	0	0	0
42.000000	4345.128205	4388.205128	4405.641026	3715.384615	4370.769231	4609.230769	4623.076923	4518.974359	4029.230769	4103.589744	4504.615385	4431.794872	4269.230769	3954.871795	1913.000000	1885.000000	56.547000	0.000000	0.000000	0.000000	0.000000	1	1	0	0	0	0	0	0	0	0	0	0	0	0	0	0
43.000000	4345.128205	4386.153846	4405.641026	3718.461538	4372.820513	4608.205128	4632.307692	4515.384615	4023.589744	4104.102564	4509.743590	4432.307692	4262.564103	3946.666667	1925.000000	1887.000000	56.562000	0.000000	0.000000	0.000000	0.000000	1	1	0	0	0	0	0	0	0	0	0	0	0	0	0	0
44.000000	4349.230769	4389.743590	4403.076923	3722.564103	4374.358974	4607.692308	4633.333333	4505.641026	4022.051282	4104.102564	4509.743590	4433.333333	4265.641026	3943.076923	1933.000000	1885.000000	56.578000	0.000000	0.000000	0.000000	0.000000	1	1	0	0	0	0	0	0	0	0	0	0	0	0	0	0
45.000000	4347.692308	4391.282051	4405.128205	3721.538462	4372.820513	4606.666667	4626.666667	4502.051282	4027.179487	4103.076923	4506.666667	4431.282051	4264.615385	3940.512821	1935.000000	1886.000000	56.578000	0.000000	0.000000	0.000000	0.000000	1	1	0	0	0	0	0	0	0	0	0	0	0	0	0	0
46.000000	4346.666667	4391.794872	4410.256410	3720.512821	4372.820513	4606.153846	4623.589744	4504.102564	4026.666667	4103.589744	4508.205128	4433.333333	4267.179487	3946.666667	1925.000000	1876.000000	56.593000	0.000000	0.000000	0.000000	0.000000	1	1	0	0	0	0	0	0	0	0	0	0	0	0	0	0
47.000000	4342.564103	4390.769231	4408.205128	3716.410256	4375.384615	4609.230769	4630.769231	4503.589744	4022.564103	4103.589744	4506.153846	4432.307692	4264.102564	3952.307692	1921.000000	1875.000000	56.593000	0.000000	0.000000	0.000000	0.000000	1	1	0	0	0	0	0	0	0	0	0	0	0	0	0	0
48.000000	4346.153846	4390.769231	4408.205128	3713.333333	4372.820513	4607.692308	4629.743590	4510.769231	4025.128205	4102.051282	4505.128205	4435.384615	4266.666667	3957.948718	1925.000000	1868.000000	56.593000	0.000000	0.000000	0.000000	0.000000	1	1	0	0	0	0	0	0	0	0	0	0	0	0	0	0
49.000000	4345.641026	4390.769231	4410.256410	3714.871795	4371.794872	4610.256410	4626.153846	4510.256410	4029.743590	4101.025641	4502.051282	4431.794872	4267.179487	3955.897436	1926.000000	1855.000000	56.609000	0.000000	0.000000	0.000000	0.000000	1	1	0	0	0	0	0	0	0	0	0	0	0	0	0	0
50.000000	4345.128205	4390.769231	4408.205128	3716.923077	4373.333333	4608.717949	4625.641026	4514.871795	4024.615385	4100.000000	4501.538462	4429.230769	4268.717949	3958.974359	1928.000000	1846.000000	56.625000	0.000000	0.000000	0.000000	0.000000	1	1	0	0	0	0	0	0	0	0	0	0	0	0	0	0
51.000000	4345.128205	4392.820513	4408.717949	3714.871795	4372.307692	4610.256410	4627.179487	4514.871795	4025.641026	4097.948718	4501.025641	4431.282051	4269.230769	3963.076923	1930.000000	1838.000000	56.625000	0.000000	0.000000	0.000000	0.000000	1	1	0	0	0	0	0	0	0	0	0	0	0	0	0	0
52.000000	4339.487179	4393.846154	4411.282051	3713.333333	4370.256410	4608.717949	4621.538462	4525.128205	4027.692308	4097.435897	4497.948718	4435.384615	4265.128205	3962.564103	1933.000000	1824.000000	56.640000	0.000000	0.000000	0.000000	0.000000	1	1	0	0	0	0	0	0	0	0	0	0	0	0	0	0
53.000000	4332.820513	4391.794872	4403.589744	3714.358974	4370.256410	4608.717949	4621.025641	4520.000000	4026.666667	4096.923077	4493.846154	4433.333333	4266.666667	3964.615385	1949.000000	1812.000000	56.640000	0.000000	0.000000	0.000000	0.000000	1	1	0	0	0	0	0	0	0	0	0	0	0	0	0	0
54.000000	4331.282051	4391.282051	4402.051282	3713.333333	4371.282051	4605.641026	4628.205128	4520.000000	4018.974359	4089.230769	4489.230769	4425.641026	4267.179487	3973.846154	1959.000000	1809.000000	56.640000	0.000000	0.000000	0.000000	0.000000	1	1	0	0	0	0	0	0	0	0	0	0	0	0	0	0
55.000000	4341.538462	4394.358974	4407.179487	3716.923077	4372.307692	4607.692308	4627.179487	4518.461538	4021.538462	4088.717949	4493.846154	4425.641026	4271.794872	3982.564103	1968.000000	1809.000000	56.656000	0.000000	0.000000	0.000000	0.000000	1	1	0	0	0	0	0	0	0	0	0	0	0	0	0	0
56.000000	4348.717949	4389.230769	4405.128205	3719.487179	4372.307692	4607.179487	4622.564103	4519.487179	4024.102564	4096.923077	4502.051282	4424.102564	4267.692308	3965.128205	1973.000000	1806.000000	56.656000	0.000000	0.000000	0.000000	0.000000	1	1	0	0	0	0	0	0	0	0	0	0	0	0	0	0
57.000000	4354.871795	4385.128205	4400.000000	3718.461538	4370.256410	4605.128205	4627.179487	4525.641026	4023.589744	4100.512821	4509.230769	4425.641026	4270.769231	3952.820513	1976.000000	1803.000000	56.672000	0.000000	0.000000	0.000000	0.000000	1	1	0	0	0	0	0	0	0	0	0	0	0	0	0	0
58.000000	4347.179487	4387.179487	4401.538462	3717.948718	4370.769231	4603.589744	4634.871795	4529.230769	4024.102564	4099.487179	4508.205128	4428.205128	4265.641026	3950.769231	1986.000000	1807.000000	56.687000	0.000000	0.000000	0.000000	0.000000	1	1	0	0	0	0	0	0	0	0	0	0	0	0	0	0
59.000000	4341.538462	4392.307692	4400.512821	3723.076923	4373.846154	4603.589744	4625.641026	4529.230769	4024.615385	4102.564103	4511.282051	4438.461538	4264.615385	3947.179487	1995.000000	1813.000000	56.687000	0.000000	0.000000	0.000000	0.000000	1	1	0	0	0	0	0	0	0	0	0	0	0	0	0	0
60.000000	4338.974359	4391.282051	4404.102564	3718.974359	4373.846154	4606.666667	4614.871795	4530.256410	4025.128205	4105.641026	4509.743590	4438.461538	4264.615385	3933.333333	2005.000000	1822.000000	56.687000	0.000000	0.000000	0.000000	0.000000	1	1	0	0	0	0	0	0	0	0	0	0	0	0	0	0
61.000000	4344.102564	4389.230769	4408.717949	3710.769231	4374.358974	4607.179487	4618.461538	4532.307692	4024.615385	4104.615385	4505.641026	4434.358974	4268.717949	3941.025641	2006.000000	1833.000000	56.703000	0.000000	0.000000	0.000000	0.000000	1	1	0	0	0	0	0	0	0	0	0	0	0	0	0	0
62.000000	4346.153846	4385.641026	4406.666667	3712.307692	4374.871795	4606.666667	4635.384615	4528.717949	4023.589744	4103.076923	4504.615385	4430.769231	4267.179487	3950.769231	2004.000000	1842.000000	56.718000	0.000000	0.000000	0.000000	0.000000	1	1	0	0	0	0	0	0	0	0	0	0	0	0	0	0
63.000000	4347.692308	4388.205128	4403.589744	3715.384615	4374.871795	4604.102564	4639.487179	4525.128205	4021.025641	4100.000000	4507.692308	4429.230769	4267.179487	3949.230769	1994.000000	1853.000000	56.718000	0.000000	0.000000	0.000000	0.000000	1	1	0	0	0	0	0	0	0	0	0	0	0	0	0	0
64.000000	4344.102564	4391.282051	4406.153846	3716.923077	4373.333333	4608.717949	4622.564103	4524.615385	4024.615385	4098.461538	4507.692308	4430.256410	4271.282051	3951.794872	1988.000000	1870.000000	56.718000	0.000000	0.000000	0.000000	0.000000	1	1	0	0	0	0	0	0	0	0	0	0	0	0	0	0
65.000000	4335.384615	4390.769231	4407.179487	3722.564103	4373.333333	4610.769231	4607.692308	4526.153846	4024.615385	4098.461538	4504.102564	4430.769231	4270.769231	3956.923077	1983.000000	1882.000000	56.734000	0.000000	0.000000	0.000000	0.000000	1	1	0	0	0	0	0	0	0	0	0	0	0	0	0	0
66.000000	4336.410256	4390.769231	4408.205128	3721.538462	4371.794872	4608.717949	4621.025641	4531.282051	4024.615385	4100.000000	4504.102564	4434.871795	4269.743590	3953.333333	1971.000000	1896.000000	56.734000	0.000000	0.000000	0.000000	0.000000	1	1	0	0	0	0	0	0	0	0	0	0	0	0	0	0
67.000000	4338.974359	4388.717949	4409.230769	3711.282051	4372.307692	4601.538462	4645.641026	4529.230769	4024.615385	4102.564103	4507.179487	4434.871795	4264.102564	3944.615385	1956.000000	1907.000000	56.750000	0.000000	0.000000	0.000000	0.000000	1	1	0	0	0	0	0	0	0	0	0	0	0	0	0	0
68.000000	4344.615385	4390.256410	4407.179487	3711.794872	4372.307692	4604.615385	4645.128205	4531.282051	4026.666667	4105.128205	4511.794872	4433.333333	4266.153846	3944.102564	1938.000000	1918.000000	56.765000	0.000000	0.000000	0.000000	0.000000	1	1	0	0	0	0	0	0	0	0	0	0	0	0	0	0
69.000000	4344.102564	4392.820513	4406.153846	3712.820513	4373.333333	4608.717949	4620.512821	4532.307692	4027.179487	4105.128205	4505.641026	4425.128205	4263.589744	3938.974359	1921.000000	1927.000000	56.765000	0.000000	0.000000	0.000000	0.000000	1	1	0	0	0	0	0	0	0	0	0	0	0	0	0	0
70.000000	4343.589744	4393.846154	4404.102564	3712.307692	4375.384615	4610.256410	4611.794872	4524.102564	4025.641026	4102.051282	4498.461538	4428.205128	4267.692308	3949.743590	1911.000000	1928.000000	56.765000	0.000000	0.000000	0.000000	0.000000	1	1	0	0	0	0	0	0	0	0	0	0	0	0	0	0
71.000000	4331.794872	4391.282051	4402.564103	3710.769231	4374.871795	4606.153846	4626.666667	4527.179487	4018.974359	4094.871795	4494.358974	4430.256410	4267.179487	3967.692308	1910.000000	1924.000000	56.781000	0.000000	0.000000	0.000000	0.000000	1	1	0	0	0	0	0	0	0	0	0	0	0	0	0	0
72.000000	4330.769231	4392.820513	4402.051282	3708.717949	4376.410256	4608.205128	4635.384615	4525.641026	4020.000000	4085.641026	4485.128205	4428.205128	4268.205128	3984.615385	1901.000000	1917.000000	56.797000	0.000000	0.000000	0.000000	0.000000	1	1	0	0	0	0	0	0	0	0	0	0	0	0	0	0
73.000000	4334.358974	4392.307692	4404.615385	3709.743590	4374.871795	4609.743590	4628.717949	4524.615385	4025.128205	4080.000000	4470.769231	4421.025641	4264.615385	3994.871795	1884.000000	1904.000000	56.797000	0.000000	0.000000	0.000000	0.000000	1	1	0	0	0	0	0	0	0	0	0	0	0	0	0	0
74.000000	4338.974359	4391.282051	4400.000000	3722.051282	4372.820513	4608.717949	4620.000000	4519.487179	4022.564103	4081.538462	4478.461538	4423.589744	4268.717949	3993.846154	1861.000000	1892.000000	56.812000	0.000000	0.000000	0.000000	0.000000	1	1	0	0	0	0	0	0	0	0	0	0	0	0	0	0
75.000000	4339.487179	4389.743590	4398.974359	3724.615385	4373.846154	4607.692308	4625.641026	4522.564103	4016.410256	4083.589744	4494.871795	4429.230769	4272.820513	3975.384615	1837.000000	1886.000000	56.812000	0.000000	0.000000	0.000000	0.000000	1	1	0	0	0	0	0	0	0	0	0	0	0	0	0	0
76.000000	4341.025641	4388.205128	4400.512821	3718.974359	4377.435897	4607.179487	4632.307692	4522.564103	4020.000000	4084.102564	4498.974359	4430.769231	4277.948718	3974.358974	1801.000000	1867.000000	56.828000	0.000000	0.000000	0.000000	0.000000	1	1	0	0	0	0	0	0	0	0	0	0	0	0	0	0
77.000000	4339.487179	4387.179487	4401.538462	3715.897436	4374.358974	4608.717949	4634.358974	4522.051282	4024.102564	4088.205128	4498.461538	4429.743590	4271.282051	3973.846154	1748.000000	1866.000000	56.828000	0.000000	0.000000	0.000000	0.000000	1	1	0	0	0	0	0	0	0	0	0	0	0	0	0	0
78.000000	4341.538462	4387.179487	4402.564103	3709.743590	4369.743590	4607.179487	4623.589744	4526.666667	4022.051282	4096.923077	4506.153846	4431.794872	4265.641026	3953.333333	1739.000000	1871.000000	56.844000	0.000000	0.000000	0.000000	0.000000	1	1	0	0	0	0	0	0	0	0	0	0	0	0	0	0
79.000000	4346.666667	4380.512821	4402.564103	3708.205128	4365.128205	4605.128205	4618.461538	4526.153846	4023.589744	4101.538462	4507.179487	4434.871795	4264.102564	3940.000000	1734.000000	1874.000000	56.844000	0.000000	0.000000	0.000000	0.000000	1	1	0	0	0	0	0	0	0	0	0	0	0	0	0	0
80.000000	4343.076923	4391.282051	4406.666667	3715.384615	4373.846154	4608.205128	4626.666667	4529.230769	4029.230769	4097.948718	4500.000000	4431.282051	4264.102564	3949.743590	1710.000000	1885.000000	56.859000	0.000000	0.000000	0.000000	0.000000	1	1	0	0	0	0	0	0	0	0	0	0	0	0	0	0
81.000000	4337.435897	4396.923077	4401.538462	3716.923077	4375.384615	4611.282051	4636.410256	4525.128205	4030.769231	4095.897436	4492.307692	4428.205128	4262.051282	3946.153846	1683.000000	1889.000000	56.859000	0.000000	0.000000	0.000000	0.000000	1	1	0	0	0	0	0	0	0	0	0	0	0	0	0	0
82.000000	4341.025641	4367.179487	4394.358974	3715.384615	4355.384615	4591.282051	4617.948718	4529.743590	4026.666667	4098.461538	4487.692308	4428.205128	4255.384615	3941.025641	1665.000000	1896.000000	56.859000	0.000000	0.000000	0.000000	0.000000	1	1	0	0	0	0	0	0	0	0	0	0	0	0	0	0
83.000000	4349.743590	4429.230769	4417.435897	3716.923077	4398.974359	4626.666667	4620.512821	4525.128205	4026.666667	4093.846154	4490.256410	4429.743590	4261.025641	3962.564103	1662.000000	1898.000000	56.875000	0.000000	0.000000	0.000000	0.000000	1	1	0	0	0	0	0	0	0	0	0	0	0	0	0	0
84.000000	4343.076923	4544.102564	4439.487179	3715.384615	4475.384615	4689.743590	4663.589744	4523.076923	4023.589744	4088.717949	4494.871795	4428.205128	4262.051282	3946.153846	1689.000000	1904.000000	56.890000	0.000000	0.000000	0.000000	0.000000	1	1	0	0	0	0	0	0	0	0	0	0	0	0	0	0
85.000000	4341.025641	4507.179487	4418.974359	3718.461538	4456.410256	4675.384615	4647.179487	4523.589744	4023.076923	4095.897436	4489.743590	4427.692308	4257.948718	3903.589744	1713.000000	1907.000000	56.890000	0.000000	0.000000	0.000000	0.000000	1	1	0	0	0	0	0	0	0	0	0	0	0	0	0	0
86.000000	4361.025641	4385.128205	4410.769231	3723.076923	4383.589744	4619.487179	4582.051282	4528.717949	4023.589744	4107.692308	4483.589744	4424.615385	4250.256410	3906.153846	1736.000000	1919.000000	56.906000	0.000000	0.000000	0.000000	0.000000	1	1	0	0	0	0	0	0	0	0	0	0	0	0	0	0
87.000000	4377.948718	4381.538462	4430.256410	3720.512821	4378.461538	4619.487179	4602.051282	4535.384615	4024.615385	4113.846154	4507.179487	4420.512821	4259.487179	3929.230769	1757.000000	1903.000000	56.906000	0.000000	0.000000	0.000000	0.000000	1	1	0	0	0	0	0	0	0	0	0	0	0	0	0	0
88.000000	4373.846154	4417.435897	4430.256410	3715.897436	4381.025641	4622.564103	4690.769231	4532.307692	4029.743590	4107.692308	4552.820513	4424.102564	4261.025641	3894.358974	1778.000000	1872.000000	56.906000	0.000000	0.000000	0.000000	0.000000	1	1	0	0	0	0	0	0	0	0	0	0	0	0	0	0
89.000000	4366.153846	4400.512821	4404.615385	3739.487179	4345.641026	4601.025641	4685.128205	4532.820513	4044.102564	4085.641026	4602.564103	4451.282051	4275.384615	3869.743590	1814.000000	1859.000000	56.922000	0.000000	0.000000	0.000000	0.000000	1	1	0	0	0	0	0	0	0	0	0	0	0	0	0	0
90.000000	4314.871795	4384.615385	4400.512821	3764.102564	4342.051282	4611.282051	4606.666667	4534.358974	4047.179487	4081.025641	4618.461538	4488.717949	4285.641026	3884.615385	1849.000000	1846.000000	56.937000	0.000000	0.000000	0.000000	0.000000	1	1	0	0	0	0	0	0	0	0	0	0	0	0	0	0
91.000000	4258.974359	4395.384615	4411.794872	3762.564103	4367.692308	4621.538462	4592.307692	4535.384615	4042.564103	4109.743590	4591.282051	4512.307692	4278.461538	3868.205128	1874.000000	1850.000000	56.937000	0.000000	0.000000	0.000000	0.000000	1	1	0	0	0	0	0	0	0	0	0	0	0	0	0	0
92.000000	4251.282051	4415.897436	4426.153846	3764.102564	4374.871795	4604.102564	4660.512821	4533.846154	4051.794872	4124.615385	4568.205128	4526.666667	4263.589744	3787.179487	1883.000000	1879.000000	56.937000	0.000000	0.000000	0.000000	0.000000	1	1	0	0	0	0	0	0	0	0	0	0	0	0	0	0
93.000000	4254.871795	4424.615385	4427.692308	3775.897436	4372.307692	4602.051282	4699.487179	4532.307692	4066.153846	4105.641026	4555.384615	4541.538462	4257.948718	3745.641026	1882.000000	1888.000000	56.953000	0.000000	0.000000	0.000000	0.000000	1	1	0	0	0	0	0	0	0	0	0	0	0	0	0	0
94.000000	4238.461538	4421.538462	4410.769231	3757.435897	4393.846154	4627.692308	4652.820513	4537.435897	4065.641026	4099.487179	4505.641026	4516.410256	4253.333333	3808.205128	1875.000000	1904.000000	56.969000	0.000000	0.000000	0.000000	0.000000	1	1	0	0	0	0	0	0	0	0	0	0	0	0	0	0
95.000000	4261.538462	4438.974359	4394.871795	3720.000000	4390.769231	4635.897436	4598.974359	4522.564103	4047.179487	4122.051282	4466.666667	4473.846154	4244.102564	3887.692308	1871.000000	1936.000000	56.969000	0.000000	0.000000	0.000000	0.000000	1	1	0	0	0	0	0	0	0	0	0	0	0	0	0	0
96.000000	4315.384615	4451.794872	4382.564103	3700.000000	4330.769231	4609.230769	4614.871795	4529.230769	4033.333333	4134.871795	4484.102564	4455.384615	4241.025641	3913.846154	1863.000000	1947.000000	56.984000	0.000000	0.000000	0.000000	0.000000	1	1	0	0	0	0	0	0	0	0	0	0	0	0	0	0
97.000000	4343.589744	4417.435897	4400.512821	3704.615385	4391.794872	4612.307692	4680.000000	4530.256410	4029.230769	4112.307692	4502.051282	4449.743590	4242.564103	3918.461538	1859.000000	1959.000000	56.984000	0.000000	0.000000	0.000000	0.000000	1	1	0	0	0	0	0	0	0	0	0	0	0	0	0	0
98.000000	4364.102564	4381.025641	4448.717949	3765.641026	4585.641026	4655.384615	4700.000000	4509.743590	4016.923077	4071.282051	4496.410256	4417.948718	4255.897436	3941.025641	1860.000000	1958.000000	56.984000	0.000000	0.000000	0.000000	0.000000	1	1	0	0	0	0	0	0	0	0	0	0	0	0	0	0
99.000000	4379.487179	4386.153846	4489.230769	3833.333333	4592.307692	4665.128205	4615.384615	4498.974359	4003.076923	4029.743590	4482.564103	4401.025641	4268.205128	4015.384615	1871.000000	1973.000000	57.000000	0.000000	0.000000	0.000000	0.000000	1	1	0	0	0	0	0	0	0	0	0	0	0	0	0	0
100.000000	4350.769231	4404.615385	4475.897436	3822.564103	4388.717949	4635.897436	4534.358974	4496.410256	3997.948718	4014.871795	4431.282051	4417.435897	4273.333333	4129.230769	1881.000000	1964.000000	57.015000	0.000000	0.000000	0.000000	0.000000	1	1	0	0	0	0	0	0	0	0	0	0	0	0	0	0
101.000000	4288.717949	4406.153846	4447.179487	3753.333333	4290.256410	4601.025641	4561.538462	4509.230769	3982.051282	4043.589744	4382.051282	4431.794872	4280.000000	4204.102564	1879.000000	1936.000000	57.015000	0.000000	0.000000	0.000000	0.000000	1	1	0	0	0	0	0	0	0	0	0	0	0	0	0	0
102.000000	4274.358974	4402.564103	4435.384615	3714.358974	4324.615385	4602.564103	4633.333333	4516.410256	3971.282051	4075.897436	4409.743590	4439.487179	4283.076923	4204.615385	1876.000000	1909.000000	57.031000	0.000000	0.000000	0.000000	0.000000	1	1	0	0	0	0	0	0	0	0	0	0	0	0	0	0
103.000000	4305.128205	4398.461538	4442.051282	3704.615385	4323.589744	4612.820513	4632.820513	4528.717949	3992.307692	4084.615385	4476.410256	4452.820513	4274.871795	4135.897436	1867.000000	1880.000000	57.031000	0.000000	0.000000	0.000000	0.000000	1	1	0	0	0	0	0	0	0	0	0	0	0	0	0	0
104.000000	4327.692308	4394.871795	4434.358974	3696.410256	4318.461538	4625.641026	4605.128205	4530.256410	4021.538462	4103.076923	4525.641026	4456.410256	4267.692308	4006.666667	1846.000000	1852.000000	57.031000	0.000000	0.000000	0.000000	0.000000	1	1	0	0	0	0	0	0	0	0	0	0	0	0	0	0
105.000000	4337.948718	4389.743590	4410.769231	3671.794872	4336.410256	4608.717949	4620.512821	4541.538462	4030.769231	4133.846154	4565.641026	4446.153846	4260.000000	3881.025641	1817.000000	1825.000000	57.047000	0.000000	0.000000	0.000000	0.000000	1	1	0	0	0	0	0	0	0	0	0	0	0	0	0	0
106.000000	4341.538462	4386.666667	4386.153846	3657.435897	4342.051282	4598.461538	4656.410256	4544.615385	4041.538462	4143.076923	4604.615385	4456.923077	4261.538462	3810.769231	1788.000000	1809.000000	57.062000	0.000000	0.000000	0.000000	0.000000	1	1	0	0	0	0	0	0	0	0	0	0	0	0	0	0
107.000000	4321.025641	4375.384615	4378.461538	3669.230769	4368.205128	4605.641026	4672.307692	4536.923077	4052.307692	4130.256410	4606.153846	4471.282051	4258.461538	3781.538462	1759.000000	1789.000000	57.062000	0.000000	0.000000	0.000000	0.000000	1	1	0	0	0	0	0	0	0	0	0	0	0	0	0	0
108.000000	4325.641026	4364.615385	4381.538462	3694.871795	4415.384615	4611.282051	4656.410256	4538.461538	4046.666667	4118.461538	4566.153846	4453.333333	4261.538462	3810.769231	1719.000000	1761.000000	57.078000	0.000000	0.000000	0.000000	0.000000	1	1	0	0	0	0	0	0	0	0	0	0	0	0	0	0
109.000000	4354.871795	4361.538462	4392.307692	3726.153846	4436.410256	4622.051282	4634.358974	4532.820513	4035.897436	4107.179487	4509.743590	4415.897436	4262.051282	3858.974359	1713.000000	1741.000000	57.078000	0.000000	0.000000	0.000000	0.000000	1	1	0	0	0	0	0	0	0	0	0	0	0	0	0	0
110.000000	4370.769231	4372.820513	4405.128205	3744.102564	4413.333333	4621.538462	4620.000000	4530.256410	4031.794872	4082.051282	4471.282051	4412.820513	4269.230769	3915.897436	1720.000000	1737.000000	57.078000	0.000000	0.000000	0.000000	0.000000	1	1	0	0	0	0	0	0	0	0	0	0	0	0	0	0
111.000000	4354.358974	4385.128205	4396.410256	3737.435897	4382.564103	4625.641026	4638.461538	4522.564103	4021.538462	4056.923077	4433.333333	4410.256410	4268.717949	4007.179487	1743.000000	1730.000000	57.094000	0.000000	0.000000	0.000000	0.000000	1	1	0	0	0	0	0	0	0	0	0	0	0	0	0	0
112.000000	4324.102564	4391.282051	4391.282051	3718.974359	4366.153846	4612.820513	4638.974359	4520.512821	4003.076923	4054.358974	4391.794872	4388.717949	4275.897436	4126.153846	1774.000000	1732.000000	57.109000	0.000000	0.000000	0.000000	0.000000	1	1	0	0	0	0	0	0	0	0	0	0	0	0	0	0
113.000000	4300.000000	4390.769231	4397.948718	3718.461538	4365.641026	4608.717949	4618.974359	4518.974359	3991.794872	4057.948718	4380.512821	4376.923077	4283.076923	4191.794872	1817.000000	1738.000000	57.109000	0.000000	0.000000	0.000000	0.000000	1	1	0	0	0	0	0	0	0	0	0	0	0	0	0	0
114.000000	4310.256410	4382.564103	4407.179487	3712.820513	4361.538462	4600.512821	4605.641026	4520.000000	4000.000000	4055.384615	4425.641026	4396.923077	4283.589744	4162.564103	1855.000000	1733.000000	57.109000	0.000000	0.000000	0.000000	0.000000	1	1	0	0	0	0	0	0	0	0	0	0	0	0	0	0
115.000000	4354.871795	4377.435897	4404.102564	3690.769231	4360.000000	4592.820513	4626.153846	4524.102564	4015.897436	4071.282051	4486.153846	4402.564103	4280.512821	4070.256410	1887.000000	1718.000000	57.125000	0.000000	0.000000	0.000000	0.000000	1	1	0	0	0	0	0	0	0	0	0	0	0	0	0	0
116.000000	4386.666667	4379.487179	4408.717949	3689.743590	4364.615385	4590.769231	4658.974359	4529.230769	4020.512821	4118.974359	4540.000000	4398.974359	4267.692308	3943.589744	1930.000000	1712.000000	57.140000	0.000000	0.000000	0.000000	0.000000	1	1	0	0	0	0	0	0	0	0	0	0	0	0	0	0
117.000000	4382.051282	4375.384615	4400.512821	3707.692308	4362.564103	4591.282051	4650.769231	4540.512821	4030.256410	4161.538462	4613.333333	4432.307692	4253.333333	3802.051282	1990.000000	1720.000000	57.140000	0.000000	0.000000	0.000000	0.000000	1	1	0	0	0	0	0	0	0	0	0	0	0	0	0	0
118.000000	4374.871795	4377.948718	4410.769231	3733.333333	4360.512821	4603.589744	4627.179487	4540.512821	4055.897436	4161.538462	4662.051282	4480.512821	4232.307692	3681.025641	2043.000000	1719.000000	57.156000	0.000000	0.000000	0.000000	0.000000	1	1	0	0	0	0	0	0	0	0	0	0	0	0	0	0
119.000000	4389.230769	4386.153846	4430.256410	3763.589744	4357.435897	4604.615385	4618.461538	4542.564103	4071.794872	4149.230769	4630.256410	4483.589744	4238.461538	3644.615385	2022.000000	1712.000000	57.156000	0.000000	0.000000	0.000000	0.000000	1	1	0	0	0	0	0	0	0	0	0	0	0	0	0	0
120.000000	4393.846154	4383.076923	4421.538462	3793.846154	4362.564103	4601.538462	4640.000000	4544.102564	4055.384615	4152.307692	4551.282051	4428.717949	4243.589744	3693.333333	1977.000000	1709.000000	57.156000	0.000000	0.000000	0.000000	0.000000	1	1	0	0	0	0	0	0	0	0	0	0	0	0	0	0
121.000000	4397.948718	4397.948718	4410.769231	3795.384615	4366.666667	4602.051282	4651.282051	4542.051282	4038.974359	4142.564103	4502.051282	4396.410256	4232.820513	3804.102564	1954.000000	1694.000000	57.172000	0.000000	0.000000	0.000000	0.000000	1	1	0	0	0	0	0	0	0	0	0	0	0	0	0	0
122.000000	4381.025641	4416.923077	4412.307692	3756.410256	4368.717949	4608.717949	4644.615385	4533.333333	4036.410256	4107.692308	4490.769231	4405.641026	4230.769231	3906.153846	1942.000000	1709.000000	57.187000	0.000000	0.000000	0.000000	0.000000	1	1	0	0	0	0	0	0	0	0	0	0	0	0	0	0
123.000000	4334.871795	4416.923077	4402.564103	3715.897436	4369.743590	4608.717949	4633.333333	4523.076923	4036.410256	4077.948718	4487.692308	4430.256410	4257.948718	3972.820513	1905.000000	1716.000000	57.187000	0.000000	0.000000	0.000000	0.000000	1	1	0	0	0	0	0	0	0	0	0	0	0	0	0	0
124.000000	4303.076923	4404.102564	4384.615385	3707.692308	4375.384615	4608.717949	4629.230769	4523.589744	4032.307692	4058.974359	4477.435897	4440.000000	4265.641026	4021.538462	1850.000000	1707.000000	57.203000	0.000000	0.000000	0.000000	0.000000	1	1	0	0	0	0	0	0	0	0	0	0	0	0	0	0
125.000000	4340.000000	4411.794872	4397.435897	3703.589744	4382.051282	4613.333333	4630.769231	4524.102564	4023.076923	4048.717949	4474.871795	4425.641026	4256.923077	4061.538462	1801.000000	1716.000000	57.203000	0.000000	0.000000	0.000000	0.000000	1	1	0	0	0	0	0	0	0	0	0	0	0	0	0	0
126.000000	4360.000000	4441.538462	4413.333333	3668.205128	4388.717949	4611.794872	4658.461538	4525.641026	4011.282051	4055.384615	4474.358974	4395.897436	4254.358974	4069.743590	1762.000000	1714.000000	57.203000	0.000000	0.000000	0.000000	0.000000	1	1	0	0	0	0	0	0	0	0	0	0	0	0	0	0
127.000000	4293.846154	4448.717949	4403.076923	3675.384615	4410.256410	4607.179487	4685.128205	4519.487179	4006.153846	4077.435897	4473.846154	4416.923077	4261.538462	4049.230769	1747.000000	1717.000000	57.219000	0.000000	0.000000	0.000000	0.000000	1	1	0	0	0	0	0	0	0	0	0	0	0	0	0	0
128.000000	4220.512821	4420.000000	4395.897436	3737.435897	4421.025641	4605.128205	4629.230769	4526.666667	4003.589744	4098.974359	4487.179487	4489.230769	4271.282051	3991.794872	1761.000000	1733.000000	57.234000	0.000000	0.000000	0.000000	0.000000	1	1	0	0	0	0	0	0	0	0	0	0	0	0	0	0
0.000000	4270.256410	4406.153846	4417.948718	3794.358974	4411.794872	4610.256410	4532.820513	4534.871795	4008.205128	4102.564103	4492.307692	4494.871795	4273.333333	3899.487179	1795.000000	1724.000000	57.239000	0.000000	0.000000	0.000000	0.000000	1	1	0	0	0	0	0	0	0	0	0	0	0	0	0	0
1.000000	4389.230769	4404.615385	4438.461538	3821.025641	4391.282051	4613.333333	4549.743590	4525.641026	4018.974359	4095.384615	4451.282051	4436.410256	4256.410256	3822.051282	1847.000000	1735.000000	57.239000	0.000000	0.000000	0.000000	0.000000	1	1	0	0	0	0	0	0	0	0	0	0	0	0	0	0
2.000000	4389.230769	4387.692308	4433.846154	3825.641026	4351.794872	4594.358974	4656.410256	4526.153846	4024.615385	4090.256410	4424.102564	4464.615385	4246.153846	3798.461538	1880.000000	1758.000000	57.255000	0.000000	0.000000	0.000000	0.000000	1	1	0	0	0	0	0	0	0	0	0	0	0	0	0	0
3.000000	4291.282051	4374.358974	4422.051282	3822.564103	4303.076923	4579.487179	4700.512821	4521.025641	4016.923077	4077.948718	4456.923077	4561.025641	4260.000000	3850.769231	1875.000000	1735.000000	57.255000	0.000000	0.000000	0.000000	0.000000	1	1	0	0	0	0	0	0	0	0	0	0	0	0	0	0
4.000000	4244.102564	4400.000000	4426.666667	3805.128205	4301.538462	4597.435897	4623.076923	4521.538462	4008.717949	4069.743590	4492.820513	4534.358974	4266.153846	4001.025641	1867.000000	1757.000000	57.270000	0.000000	0.000000	0.000000	0.000000	1	1	0	0	0	0	0	0	0	0	0	0	0	0	0	0
5.000000	4248.717949	4423.589744	4429.743590	3758.461538	4341.025641	4613.846154	4540.000000	4528.205128	4005.128205	4083.589744	4497.435897	4426.666667	4248.205128	4160.512821	1852.000000	1779.000000	57.270000	0.000000	0.000000	0.000000	0.000000	1	1	0	0	0	0	0	0	0	0	0	0	0	0	0	0
6.000000	4272.820513	4405.641026	4433.846154	3663.589744	4362.564103	4595.384615	4584.102564	4527.179487	4008.717949	4096.923077	4501.025641	4389.743590	4234.871795	4160.000000	1855.000000	1792.000000	57.286000	0.000000	0.000000	0.000000	0.000000	1	1	0	0	0	0	0	0	0	0	0	0	0	0	0	0
7.000000	4361.025641	4391.794872	4423.589744	3619.487179	4373.333333	4584.102564	4701.538462	4522.564103	4020.512821	4098.974359	4526.153846	4392.307692	4246.153846	4033.333333	1851.000000	1807.000000	57.286000	0.000000	0.000000	0.000000	0.000000	1	1	0	0	0	0	0	0	0	0	0	0	0	0	0	0
8.000000	4412.307692	4409.743590	4399.487179	3665.641026	4356.923077	4595.897436	4674.871795	4537.435897	4027.692308	4117.948718	4531.794872	4381.538462	4233.846154	3932.307692	1837.000000	1815.000000	57.302000	0.000000	0.000000	0.000000	0.000000	1	1	0	0	0	0	0	0	0	0	0	0	0	0	0	0
9.000000	4393.846154	4417.948718	4398.974359	3715.897436	4356.410256	4621.538462	4576.923077	4553.333333	4038.974359	4130.769231	4522.564103	4401.538462	4226.666667	3897.948718	1818.000000	1819.000000	57.302000	0.000000	0.000000	0.000000	0.000000	1	1	0	0	0	0	0	0	0	0	0	0	0	0	0	0
10.000000	4389.743590	4414.358974	4415.384615	3728.717949	4360.512821	4613.846154	4592.820513	4541.538462	4051.282051	4108.205128	4543.589744	4427.692308	4229.743590	3856.923077	1786.000000	1771.000000	57.317000	0.000000	0.000000	0.000000	0.000000	1	1	0	0	0	0	0	0	0	0	0	0	0	0	0	0
11.000000	4389.230769	4439.487179	4404.102564	3734.358974	4353.333333	4595.897436	4700.512821	4529.743590	4051.282051	4093.333333	4567.692308	4435.384615	4233.846154	3837.948718	1731.000000	1764.000000	57.317000	0.000000	0.000000	0.000000	0.000000	1	1	0	0	0	0	0	0	0	0	0	0	0	0	0	0
12.000000	4321.538462	4443.589744	4390.256410	3736.410256	4369.743590	4595.897436	4723.076923	4534.358974	4038.461538	4103.076923	4538.461538	4442.564103	4235.897436	3878.974359	1682.000000	1738.000000	57.333000	0.000000	0.000000	0.000000	0.000000	1	1	0	0	0	0	0	0	0	0	0	0	0	0	0	0
13.000000	4278.461538	4419.487179	4416.923077	3745.641026	4427.692308	4622.564103	4633.333333	4534.871795	4024.615385	4101.025641	4497.435897	4452.820513	4243.076923	3940.000000	1656.000000	1740.000000	57.333000	0.000000	0.000000	0.000000	0.000000	1	1	0	0	0	0	0	0	0	0	0	0	0	0	0	0
14.000000	4321.025641	4431.794872	4456.923077	3780.000000	4447.179487	4631.794872	4586.153846	4526.153846	4011.794872	4086.153846	4473.333333	4423.589744	4238.974359	3963.589744	1658.000000	1711.000000	57.349000	0.000000	0.000000	0.000000	0.000000	1	1	0	0	0	0	0	0	0	0	0	0	0	0	0	0
15.000000	4355.897436	4448.205128	4443.076923	3761.538462	4389.230769	4601.025641	4623.076923	4523.076923	4009.743590	4081.025641	4450.256410	4378.461538	4235.384615	3997.435897	1653.000000	1693.000000	57.349000	0.000000	0.000000	0.000000	0.000000	1	1	0	0	0	0	0	0	0	0	0	0	0	0	0	0
16.000000	4373.333333	4449.743590	4423.076923	3734.358974	4364.102564	4601.025641	4703.076923	4516.410256	4009.743590	4079.487179	4452.307692	4361.538462	4238.974359	4028.205128	1639.000000	1681.000000	57.364000	0.000000	0.000000	0.000000	0.000000	1	1	0	0	0	0	0	0	0	0	0	0	0	0	0	0
17.000000	4369.230769	4416.923077	4395.897436	3732.307692	4339.487179	4592.820513	4636.923077	4514.871795	4009.743590	4081.025641	4477.948718	4381.025641	4233.846154	3980.000000	1635.000000	1682.000000	57.364000	0.000000	0.000000	0.000000	0.000000	1	1	0	0	0	0	0	0	0	0	0	0	0	0	0	0
18.000000	4373.846154	4383.076923	4369.230769	3769.230769	4347.179487	4596.410256	4546.666667	4534.358974	4020.512821	4085.128205	4482.051282	4404.102564	4235.897436	3918.974359	1644.000000	1685.000000	57.380000	0.000000	0.000000	0.000000	0.000000	1	1	0	0	0	0	0	0	0	0	0	0	0	0	0	0
19.000000	4324.615385	4421.538462	4403.076923	3757.948718	4325.128205	4603.076923	4504.102564	4506.666667	4019.487179	4086.153846	4476.923077	4408.717949	4225.641026	3918.461538	1660.000000	1677.000000	57.380000	0.000000	0.000000	0.000000	0.000000	1	1	0	0	0	0	0	0	0	0	0	0	0	0	0	0
20.000000	4281.025641	4450.769231	4430.769231	3698.461538	4333.333333	4600.512821	4586.666667	4487.179487	4015.897436	4098.461538	4499.487179	4433.846154	4219.487179	3938.461538	1668.000000	1679.000000	57.395000	0.000000	0.000000	0.000000	0.000000	1	1	0	0	0	0	0	0	0	0	0	0	0	0	0	0
21.000000	4290.256410	4418.974359	4415.384615	3648.205128	4358.461538	4582.051282	4653.846154	4514.358974	4029.743590	4104.102564	4508.717949	4453.333333	4217.435897	3936.410256	1668.000000	1682.000000	57.395000	0.000000	0.000000	0.000000	0.000000	1	1	0	0	0	0	0	0	0	0	0	0	0	0	0	0
22.000000	4344.102564	4398.461538	4403.589744	3674.358974	4391.282051	4592.307692	4647.179487	4555.897436	4049.743590	4098.461538	4496.410256	4455.384615	4230.769231	3940.000000	1672.000000	1683.000000	57.411000	0.000000	0.000000	0.000000	0.000000	1	1	0	0	0	0	0	0	0	0	0	0	0	0	0	0
23.000000	4364.102564	4428.205128	4420.512821	3724.615385	4388.205128	4620.000000	4616.410256	4549.230769	4041.538462	4106.666667	4491.282051	4438.461538	4231.282051	3926.666667	1690.000000	1684.000000	57.411000	0.000000	0.000000	0.000000	0.000000	1	1	0	0	0	0	0	0	0	0	0	0	0	0	0	0
24.000000	4355.897436	4428.717949	4400.512821	3717.435897	4383.076923	4611.794872	4637.948718	4540.000000	4034.358974	4122.564103	4504.615385	4434.871795	4233.333333	3927.692308	1712.000000	1683.000000	57.427000	0.000000	0.000000	0.000000	0.000000	1	1	0	0	0	0	0	0	0	0	0	0	0	0	0	0
25.000000	4360.000000	4420.000000	4387.179487	3689.230769	4391.794872	4612.307692	4687.692308	4547.692308	4042.051282	4118.974359	4493.333333	4427.692308	4237.948718	3946.153846	1729.000000	1681.000000	57.427000	0.000000	0.000000	0.000000	0.000000	1	1	0	0	0	0	0	0	0	0	0	0	0	0	0	0
26.000000	4367.179487	4424.615385	4398.461538	3682.051282	4385.128205	4615.384615	4670.769231	4530.769231	4037.435897	4114.358974	4465.128205	4416.410256	4244.102564	3962.051282	1742.000000	1671.000000	57.442000	0.000000	0.000000	0.000000	0.000000	1	1	0	0	0	0	0	0	0	0	0	0	0	0	0	0
27.000000	4368.205128	4421.025641	4404.102564	3717.948718	4384.102564	4619.487179	4640.512821	4536.923077	4019.487179	4124.615385	4451.794872	4414.358974	4234.871795	3966.666667	1756.000000	1665.000000	57.442000	0.000000	0.000000	0.000000	0.000000	1	1	0	0	0	0	0	0	0	0	0	0	0	0	0	0
28.000000	4355.897436	4424.102564	4406.153846	3730.256410	4373.333333	4613.333333	4616.410256	4540.512821	4014.358974	4122.051282	4468.205128	4427.692308	4231.282051	3971.282051	1779.000000	1654.000000	57.458000	0.000000	0.000000	0.000000	0.000000	1	1	0	0	0	0	0	0	0	0	0	0	0	0	0	0
29.000000	4349.743590	4422.051282	4401.025641	3723.589744	4378.974359	4609.230769	4637.948718	4545.128205	4026.153846	4107.179487	4487.179487	4440.000000	4237.948718	3972.307692	1803.000000	1641.000000	57.458000	0.000000	0.000000	0.000000	0.000000	1	1	0	0	0	0	0	0	0	0	0	0	0	0	0	0
30.000000	4348.205128	4422.051282	4400.000000	3725.128205	4373.846154	4608.717949	4641.538462	4544.615385	4025.128205	4108.205128	4484.102564	4437.948718	4239.487179	3977.948718	1820.000000	1628.000000	57.474000	0.000000	0.000000	0.000000	0.000000	1	1	0	0	0	0	0	0	0	0	0	0	0	0	0	0
31.000000	4354.358974	4422.051282	4407.179487	3726.153846	4373.846154	4611.282051	4636.410256	4531.794872	4016.923077	4114.358974	4472.820513	4430.769231	4238.974359	3985.128205	1832.000000	1610.000000	57.474000	0.000000	0.000000	0.000000	0.000000	1	1	0	0	0	0	0	0	0	0	0	0	0	0	0	0
32.000000	4350.256410	4421.025641	4407.692308	3720.000000	4372.307692	4613.333333	4624.102564	4534.358974	4021.538462	4106.153846	4484.102564	4429.743590	4241.538462	3978.974359	1845.000000	1585.000000	57.489000	0.000000	0.000000	0.000000	0.000000	1	1	0	0	0	0	0	0	0	0	0	0	0	0	0	0
33.000000	4343.076923	4418.974359	4404.102564	3732.307692	4376.923077	4610.769231	4631.794872	4522.564103	4027.179487	4094.358974	4510.256410	4433.333333	4242.564103	3971.794872	1860.000000	1562.000000	57.489000	0.000000	0.000000	0.000000	0.000000	1	1	0	0	0	0	0	0	0	0	0	0	0	0	0	0
34.000000	4337.435897	4420.000000	4404.102564	3738.461538	4371.794872	4607.179487	4638.461538	4538.461538	4026.153846	4089.743590	4523.076923	4432.820513	4238.461538	3972.307692	1882.000000	1515.000000	57.505000	0.000000	0.000000	0.000000	0.000000	1	1	0	0	0	0	0	0	0	0	0	0	0	0	0	0
35.000000	4347.179487	4427.179487	4404.615385	3731.794872	4373.846154	4612.307692	4631.794872	4524.615385	4025.128205	4083.589744	4532.307692	4435.384615	4236.410256	3965.641026	1882.000000	1501.000000	57.505000	0.000000	0.000000	0.000000	0.000000	1	1	0	0	0	0	0	0	0	0	0	0	0	0	0	0
36.000000	4353.333333	4424.102564	4408.717949	3723.076923	4375.384615	4610.769231	4621.538462	4529.230769	4027.692308	4071.794872	4546.153846	4442.051282	4234.871795	3955.897436	1884.000000	1486.000000	57.520000	0.000000	0.000000	0.000000	0.000000	1	1	0	0	0	0	0	0	0	0	0	0	0	0	0	0
37.000000	4354.871795	4423.076923	4414.358974	3724.102564	4372.820513	4607.692308	4629.230769	4520.000000	4028.205128	4060.512821	4561.538462	4455.897436	4235.897436	3967.692308	1882.000000	1480.000000	57.520000	0.000000	0.000000	0.000000	0.000000	1	1	0	0	0	0	0	0	0	0	0	0	0	0	0	0
38.000000	4349.230769	4420.000000	4409.230769	3725.641026	4372.307692	4606.666667	4643.589744	4522.564103	4028.205128	4052.307692	4565.641026	4454.871795	4233.846154	3969.230769	1881.000000	1477.000000	57.536000	0.000000	0.000000	0.000000	0.000000	1	1	0	0	0	0	0	0	0	0	0	0	0	0	0	0
39.000000	4354.358974	4422.564103	4408.717949	3736.923077	4373.333333	4610.256410	4634.871795	4526.153846	4025.641026	4060.512821	4555.384615	4442.051282	4241.538462	3956.410256	1875.000000	1484.000000	57.536000	0.000000	0.000000	0.000000	0.000000	1	1	0	0	0	0	0	0	0	0	0	0	0	0	0	0
40.000000	4352.820513	4420.000000	4412.820513	3752.820513	4378.461538	4611.282051	4627.179487	4524.102564	4019.487179	4079.487179	4526.666667	4420.000000	4240.000000	3940.512821	1866.000000	1494.000000	57.552000	0.000000	0.000000	0.000000	0.000000	1	1	0	0	0	0	0	0	0	0	0	0	0	0	0	0
41.000000	4349.743590	4420.512821	4413.846154	3751.794872	4374.871795	4608.717949	4626.666667	4527.692308	4017.435897	4088.205128	4509.230769	4418.461538	4236.923077	3943.589744	1855.000000	1510.000000	57.552000	0.000000	0.000000	0.000000	0.000000	1	1	0	0	0	0	0	0	0	0	0	0	0	0	0	0
42.000000	4345.641026	4420.000000	4411.794872	3733.333333	4380.512821	4609.743590	4642.564103	4524.615385	4017.948718	4089.230769	4504.615385	4423.589744	4228.205128	3943.589744	1851.000000	1524.000000	57.567000	0.000000	0.000000	0.000000	0.000000	1	1	0	0	0	0	0	0	0	0	0	0	0	0	0	0
43.000000	4344.615385	4426.153846	4415.384615	3718.974359	4375.384615	4607.692308	4636.410256	4529.230769	4018.461538	4095.897436	4507.179487	4434.871795	4232.820513	3947.692308	1851.000000	1542.000000	57.567000	0.000000	0.000000	0.000000	0.000000	1	1	0	0	0	0	0	0	0	0	0	0	0	0	0	0
44.000000	4344.102564	4427.692308	4414.358974	3721.025641	4376.923077	4609.743590	4627.692308	4526.666667	4018.974359	4101.025641	4508.205128	4438.461538	4232.820513	3950.256410	1853.000000	1556.000000	57.583000	0.000000	0.000000	0.000000	0.000000	1	1	0	0	0	0	0	0	0	0	0	0	0	0	0	0
45.000000	4349.743590	4425.641026	4415.384615	3719.487179	4374.871795	4607.692308	4620.512821	4531.282051	4023.589744	4098.461538	4510.256410	4433.846154	4232.307692	3952.820513	1854.000000	1565.000000	57.583000	0.000000	0.000000	0.000000	0.000000	1	1	0	0	0	0	0	0	0	0	0	0	0	0	0	0
46.000000	4356.923077	4423.076923	4415.384615	3716.410256	4377.435897	4608.205128	4634.358974	4526.153846	4022.564103	4097.435897	4508.205128	4425.128205	4231.794872	3949.230769	1857.000000	1572.000000	57.599000	0.000000	0.000000	0.000000	0.000000	1	1	0	0	0	0	0	0	0	0	0	0	0	0	0	0
47.000000	4354.871795	4422.051282	4412.307692	3714.871795	4375.384615	4605.128205	4635.384615	4524.615385	4022.051282	4101.025641	4509.743590	4423.589744	4232.820513	3945.641026	1869.000000	1568.000000	57.599000	0.000000	0.000000	0.000000	0.000000	1	1	0	0	0	0	0	0	0	0	0	0	0	0	0	0
48.000000	4356.410256	4423.589744	4414.358974	3722.051282	4375.897436	4607.692308	4629.743590	4526.153846	4022.051282	4101.538462	4513.333333	4423.076923	4231.794872	3943.589744	1886.000000	1557.000000	57.614000	0.000000	0.000000	0.000000	0.000000	1	1	0	0	0	0	0	0	0	0	0	0	0	0	0	0
49.000000	4353.333333	4420.512821	4416.923077	3724.102564	4375.897436	4611.282051	4624.615385	4526.153846	4023.589744	4101.025641	4510.769231	4416.923077	4228.205128	3936.410256	1900.000000	1543.000000	57.614000	0.000000	0.000000	0.000000	0.000000	1	1	0	0	0	0	0	0	0	0	0	0	0	0	0	0
50.000000	4354.871795	4422.051282	4418.461538	3723.076923	4372.820513	4610.256410	4625.641026	4524.102564	4019.487179	4097.948718	4508.717949	4423.589744	4231.794872	3938.974359	1906.000000	1526.000000	57.630000	0.000000	0.000000	0.000000	0.000000	1	1	0	0	0	0	0	0	0	0	0	0	0	0	0	0
51.000000	4354.358974	4423.076923	4417.435897	3722.051282	4374.871795	4608.205128	4636.410256	4530.769231	4014.871795	4095.384615	4503.076923	4426.153846	4225.128205	3939.487179	1909.000000	1513.000000	57.630000	0.000000	0.000000	0.000000	0.000000	1	1	0	0	0	0	0	0	0	0	0	0	0	0	0	0
52.000000	4357.435897	4424.615385	4417.435897	3720.000000	4370.256410	4608.205128	4635.897436	4535.897436	4016.410256	4094.871795	4502.564103	4431.794872	4226.153846	3945.128205	1906.000000	1506.000000	57.645000	0.000000	0.000000	0.000000	0.000000	1	1	0	0	0	0	0	0	0	0	0	0	0	0	0	0
53.000000	4349.743590	4420.000000	4416.923077	3723.076923	4373.333333	4611.282051	4631.282051	4531.794872	4020.000000	4089.743590	4499.487179	4433.333333	4228.717949	3949.743590	1902.000000	1505.000000	57.645000	0.000000	0.000000	0.000000	0.000000	1	1	0	0	0	0	0	0	0	0	0	0	0	0	0	0
54.000000	4344.102564	4422.564103	4419.487179	3735.897436	4371.282051	4607.179487	4613.846154	4529.230769	4016.923077	4082.564103	4498.461538	4438.461538	4236.923077	3964.615385	1893.000000	1506.000000	57.661000	0.000000	0.000000	0.000000	0.000000	1	1	0	0	0	0	0	0	0	0	0	0	0	0	0	0
55.000000	4342.051282	4422.564103	4417.435897	3748.205128	4374.871795	4608.205128	4621.538462	4527.692308	4011.282051	4082.564103	4494.358974	4428.717949	4235.384615	3968.205128	1886.000000	1511.000000	57.661000	0.000000	0.000000	0.000000	0.000000	1	1	0	0	0	0	0	0	0	0	0	0	0	0	0	0
56.000000	4343.589744	4423.589744	4416.923077	3740.512821	4368.205128	4608.205128	4620.000000	4527.179487	4013.333333	4084.102564	4495.384615	4429.230769	4245.641026	3983.076923	1883.000000	1514.000000	57.677000	0.000000	0.000000	0.000000	0.000000	1	1	0	0	0	0	0	0	0	0	0	0	0	0	0	0
57.000000	4341.025641	4422.564103	4416.410256	3730.256410	4374.358974	4608.717949	4633.333333	4526.666667	4013.846154	4083.589744	4494.871795	4427.179487	4244.102564	3990.769231	1878.000000	1519.000000	57.677000	0.000000	0.000000	0.000000	0.000000	1	1	0	0	0	0	0	0	0	0	0	0	0	0	0	0
58.000000	4343.589744	4424.102564	4415.897436	3724.615385	4371.282051	4603.589744	4628.205128	4527.179487	4014.871795	4091.282051	4501.025641	4427.179487	4238.461538	3986.153846	1876.000000	1526.000000	57.692000	0.000000	0.000000	0.000000	0.000000	1	1	0	0	0	0	0	0	0	0	0	0	0	0	0	0
59.000000	4349.230769	4422.051282	4412.820513	3717.435897	4373.333333	4607.179487	4621.025641	4527.179487	4018.461538	4098.461538	4507.692308	4425.641026	4232.307692	3968.717949	1873.000000	1535.000000	57.692000	0.000000	0.000000	0.000000	0.000000	1	1	0	0	0	0	0	0	0	0	0	0	0	0	0	0
60.000000	4353.846154	4422.051282	4414.358974	3710.769231	4373.846154	4607.179487	4615.897436	4528.717949	4021.538462	4102.051282	4516.410256	4430.769231	4235.384615	3956.410256	1873.000000	1538.000000	57.708000	0.000000	0.000000	0.000000	0.000000	1	1	0	0	0	0	0	0	0	0	0	0	0	0	0	0
61.000000	4350.769231	4422.051282	4411.794872	3711.282051	4376.410256	4606.666667	4632.307692	4527.179487	4021.025641	4107.179487	4521.025641	4430.256410	4235.897436	3946.666667	1871.000000	1538.000000	57.708000	0.000000	0.000000	0.000000	0.000000	1	1	0	0	0	0	0	0	0	0	0	0	0	0	0	0
62.000000	4345.641026	4422.051282	4408.717949	3712.307692	4375.897436	4603.589744	4635.897436	4529.230769	4022.564103	4108.205128	4516.923077	4429.230769	4232.820513	3942.564103	1866.000000	1539.000000	57.724000	0.000000	0.000000	0.000000	0.000000	1	1	0	0	0	0	0	0	0	0	0	0	0	0	0	0
63.000000	4343.589744	4423.589744	4408.717949	3711.794872	4373.846154	4605.641026	4622.564103	4532.820513	4024.615385	4102.564103	4509.743590	4434.871795	4233.333333	3950.769231	1859.000000	1540.000000	57.724000	0.000000	0.000000	0.000000	0.000000	1	1	0	0	0	0	0	0	0	0	0	0	0	0	0	0
64.000000	4343.076923	4425.128205	4411.794872	3718.461538	4373.846154	4611.282051	4619.487179	4534.358974	4024.615385	4099.487179	4505.128205	4434.871795	4231.282051	3953.333333	1847.000000	1539.000000	57.739000	0.000000	0.000000	0.000000	0.000000	1	1	0	0	0	0	0	0	0	0	0	0	0	0	0	0
65.000000	4346.666667	4425.641026	4410.769231	3725.128205	4372.820513	4610.769231	4622.051282	4531.794872	4023.076923	4097.435897	4506.153846	4432.307692	4234.358974	3954.358974	1828.000000	1536.000000	57.739000	0.000000	0.000000	0.000000	0.000000	1	1	0	0	0	0	0	0	0	0	0	0	0	0	0	0
66.000000	4350.769231	4421.538462	4406.153846	3725.641026	4375.897436	4607.692308	4633.846154	4527.179487	4022.051282	4093.333333	4504.615385	4422.564103	4231.282051	3952.820513	1803.000000	1539.000000	57.755000	0.000000	0.000000	0.000000	0.000000	1	1	0	0	0	0	0	0	0	0	0	0	0	0	0	0
67.000000	4353.333333	4421.025641	4411.282051	3724.615385	4367.692308	4604.615385	4622.564103	4525.128205	4020.512821	4094.871795	4503.589744	4426.666667	4235.384615	3961.538462	1776.000000	1541.000000	57.755000	0.000000	0.000000	0.000000	0.000000	1	1	0	0	0	0	0	0	0	0	0	0	0	0	0	0
68.000000	4344.615385	4420.512821	4413.846154	3730.769231	4372.820513	4609.230769	4618.461538	4526.666667	4019.487179	4094.871795	4500.000000	4427.179487	4230.256410	3958.461538	1754.000000	1549.000000	57.770000	0.000000	0.000000	0.000000	0.000000	1	1	0	0	0	0	0	0	0	0	0	0	0	0	0	0
69.000000	4340.512821	4425.641026	4417.948718	3728.717949	4369.230769	4607.179487	4610.256410	4531.282051	4021.538462	4093.333333	4498.461538	4440.000000	4235.384615	3964.102564	1739.000000	1557.000000	57.770000	0.000000	0.000000	0.000000	0.000000	1	1	0	0	0	0	0	0	0	0	0	0	0	0	0	0
70.000000	4339.487179	4420.512821	4416.410256	3723.589744	4370.769231	4605.128205	4622.051282	4530.256410	4020.000000	4096.923077	4494.358974	4438.974359	4235.384615	3967.179487	1724.000000	1567.000000	57.786000	0.000000	0.000000	0.000000	0.000000	1	1	0	0	0	0	0	0	0	0	0	0	0	0	0	0
71.000000	4349.230769	4417.435897	4416.410256	3723.076923	4365.128205	4597.435897	4613.333333	4529.743590	4020.000000	4100.000000	4502.051282	4432.820513	4237.435897	3968.717949	1713.000000	1577.000000	57.786000	0.000000	0.000000	0.000000	0.000000	1	1	0	0	0	0	0	0	0	0	0	0	0	0	0	0
72.000000	4357.948718	4416.410256	4412.307692	3722.564103	4369.743590	4598.974359	4618.974359	4527.692308	4021.025641	4097.948718	4506.666667	4420.000000	4231.794872	3958.461538	1701.000000	1582.000000	57.802000	0.000000	0.000000	0.000000	0.000000	1	1	0	0	0	0	0	0	0	0	0	0	0	0	0	0
73.000000	4362.564103	4421.025641	4412.820513	3715.897436	4365.128205	4600.512821	4621.538462	4530.256410	4024.102564	4097.435897	4507.179487	4424.615385	4235.897436	3957.435897	1691.000000	1584.000000	57.802000	0.000000	0.000000	0.000000	0.000000	1	1	0	0	0	0	0	0	0	0	0	0	0	0	0	0
74.000000	4353.333333	4420.512821	4410.256410	3715.384615	4369.230769	4604.615385	4631.282051	4530.769231	4023.589744	4100.000000	4503.589744	4431.282051	4232.820513	3956.923077	1680.000000	1581.000000	57.817000	0.000000	0.000000	0.000000	0.000000	1	1	0	0	0	0	0	0	0	0	0	0	0	0	0	0
75.000000	4343.076923	4420.512821	4409.743590	3715.897436	4370.256410	4604.615385	4626.666667	4530.769231	4021.025641	4101.025641	4504.615385	4436.410256	4231.282051	3956.410256	1671.000000	1580.000000	57.817000	0.000000	0.000000	0.000000	0.000000	1	1	0	0	0	0	0	0	0	0	0	0	0	0	0	0
76.000000	4342.564103	4420.512821	4410.769231	3711.794872	4371.794872	4607.692308	4623.589744	4530.256410	4020.000000	4099.487179	4502.051282	4438.974359	4232.820513	3951.794872	1666.000000	1576.000000	57.833000	0.000000	0.000000	0.000000	0.000000	1	1	0	0	0	0	0	0	0	0	0	0	0	0	0	0
77.000000	4346.666667	4420.512821	4410.256410	3713.333333	4370.769231	4607.179487	4621.538462	4529.743590	4023.589744	4098.461538	4503.589744	4437.948718	4232.307692	3946.666667	1659.000000	1574.000000	57.833000	0.000000	0.000000	0.000000	0.000000	1	1	0	0	0	0	0	0	0	0	0	0	0	0	0	0
78.000000	4349.743590	4418.461538	4406.666667	3721.538462	4367.692308	4605.128205	4618.974359	4527.692308	4026.153846	4097.948718	4508.205128	4433.333333	4233.846154	3947.179487	1650.000000	1570.000000	57.849000	0.000000	0.000000	0.000000	0.000000	1	1	0	0	0	0	0	0	0	0	0	0	0	0	0	0
79.000000	4350.769231	4415.897436	4405.641026	3724.615385	4366.153846	4603.076923	4621.025641	4527.179487	4023.589744	4097.948718	4507.179487	4425.128205	4235.384615	3948.717949	1637.000000	1568.000000	57.849000	0.000000	0.000000	0.000000	0.000000	1	1	0	0	0	0	0	0	0	0	0	0	0	0	0	0
80.000000	4354.358974	4417.948718	4408.717949	3720.000000	4366.666667	4603.589744	4618.974359	4529.743590	4023.589744	4098.461538	4506.153846	4428.717949	4238.461538	3953.333333	1627.000000	1569.000000	57.864000	0.000000	0.000000	0.000000	0.000000	1	1	0	0	0	0	0	0	0	0	0	0	0	0	0	0
81.000000	4351.282051	4416.923077	4411.794872	3717.948718	4371.282051	4606.666667	4623.589744	4529.230769	4024.102564	4097.948718	4503.589744	4430.256410	4235.384615	3951.794872	1615.000000	1572.000000	57.864000	0.000000	0.000000	0.000000	0.000000	1	1	0	0	0	0	0	0	0	0	0	0	0	0	0	0
82.000000	4348.205128	4413.846154	4413.333333	3714.871795	4367.179487	4602.051282	4618.461538	4530.256410	4024.615385	4094.871795	4507.179487	4435.897436	4237.948718	3954.871795	1611.000000	1581.000000	57.880000	0.000000	0.000000	0.000000	0.000000	1	1	0	0	0	0	0	0	0	0	0	0	0	0	0	0
83.000000	4347.179487	4415.384615	4409.743590	3715.897436	4370.256410	4605.641026	4623.076923	4529.743590	4021.538462	4094.871795	4506.153846	4432.820513	4234.358974	3952.820513	1602.000000	1587.000000	57.880000	0.000000	0.000000	0.000000	0.000000	1	1	0	0	0	0	0	0	0	0	0	0	0	0	0	0
84.000000	4350.256410	4418.974359	4412.820513	3715.384615	4368.717949	4607.692308	4618.974359	4532.307692	4022.564103	4099.487179	4504.615385	4435.384615	4237.435897	3955.384615	1588.000000	1597.000000	57.895000	0.000000	0.000000	0.000000	0.000000	1	1	0	0	0	0	0	0	0	0	0	0	0	0	0	0
85.000000	4349.743590	4420.000000	4414.358974	3716.923077	4370.256410	4608.205128	4622.051282	4530.256410	4022.564103	4098.461538	4504.615385	4430.769231	4236.923077	3954.358974	1572.000000	1606.000000	57.895000	0.000000	0.000000	0.000000	0.000000	1	1	0	0	0	0	0	0	0	0	0	0	0	0	0	0
86.000000	4351.794872	4421.538462	4413.846154	3718.461538	4367.692308	4606.153846	4618.461538	4529.743590	4021.538462	4097.435897	4510.256410	4434.358974	4239.487179	3957.435897	1560.000000	1615.000000	57.911000	0.000000	0.000000	0.000000	0.000000	1	1	0	0	0	0	0	0	0	0	0	0	0	0	0	0
87.000000	4351.282051	4418.974359	4412.307692	3717.435897	4372.820513	4611.282051	4626.153846	4529.743590	4021.538462	4098.461538	4506.666667	4435.897436	4234.871795	3953.333333	1555.000000	1622.000000	57.911000	0.000000	0.000000	0.000000	0.000000	1	1	0	0	0	0	0	0	0	0	0	0	0	0	0	0
88.000000	4348.205128	4417.435897	4415.384615	3713.846154	4372.820513	4605.128205	4623.076923	4530.256410	4023.589744	4098.974359	4504.102564	4438.974359	4236.410256	3953.846154	1550.000000	1630.000000	57.927000	0.000000	0.000000	0.000000	0.000000	1	1	0	0	0	0	0	0	0	0	0	0	0	0	0	0
89.000000	4347.179487	4417.435897	4412.820513	3716.923077	4373.333333	4603.076923	4622.564103	4528.205128	4021.025641	4098.974359	4505.641026	4437.435897	4235.897436	3951.794872	1542.000000	1632.000000	57.927000	0.000000	0.000000	0.000000	0.000000	1	1	0	0	0	0	0	0	0	0	0	0	0	0	0	0
90.000000	4350.769231	4418.974359	4411.794872	3716.410256	4366.666667	4603.076923	4617.948718	4529.230769	4018.974359	4099.487179	4509.743590	4437.435897	4236.923077	3950.256410	1529.000000	1618.000000	57.942000	0.000000	0.000000	0.000000	0.000000	1	1	0	0	0	0	0	0	0	0	0	0	0	0	0	0
91.000000	4349.743590	4416.410256	4411.794872	3713.846154	4366.666667	4604.615385	4622.051282	4529.743590	4020.512821	4097.435897	4509.230769	4435.897436	4235.384615	3948.205128	1529.000000	1606.000000	57.942000	0.000000	0.000000	0.000000	0.000000	1	1	0	0	0	0	0	0	0	0	0	0	0	0	0	0
92.000000	4345.641026	4416.923077	4412.820513	3713.333333	4369.230769	4605.128205	4623.589744	4530.769231	4024.102564	4096.923077	4507.179487	4433.846154	4237.948718	3951.794872	1527.000000	1595.000000	57.958000	0.000000	0.000000	0.000000	0.000000	1	1	0	0	0	0	0	0	0	0	0	0	0	0	0	0
93.000000	4348.717949	4417.435897	4413.333333	3714.871795	4372.820513	4607.692308	4625.128205	4531.282051	4026.666667	4097.948718	4505.641026	4434.358974	4240.512821	3954.358974	1528.000000	1583.000000	57.958000	0.000000	0.000000	0.000000	0.000000	1	1	0	0	0	0	0	0	0	0	0	0	0	0	0	0
94.000000	4350.769231	4417.435897	4412.307692	3714.358974	4370.769231	4607.692308	4622.564103	4531.282051	4026.153846	4097.948718	4507.179487	4432.307692	4238.974359	3951.794872	1530.000000	1574.000000	57.974000	0.000000	0.000000	0.000000	0.000000	1	1	0	0	0	0	0	0	0	0	0	0	0	0	0	0
95.000000	4353.846154	4417.948718	4410.769231	3715.384615	4371.282051	4608.717949	4620.512821	4531.794872	4024.102564	4097.948718	4509.230769	4429.230769	4235.897436	3952.820513	1536.000000	1568.000000	57.974000	0.000000	0.000000	0.000000	0.000000	1	1	0	0	0	0	0	0	0	0	0	0	0	0	0	0
96.000000	4353.333333	4418.974359	4406.153846	3718.461538	4371.794872	4611.282051	4625.641026	4529.743590	4023.589744	4097.948718	4507.179487	4424.615385	4231.794872	3954.358974	1544.000000	1567.000000	57.989000	0.000000	0.000000	0.000000	0.000000	1	1	0	0	0	0	0	0	0	0	0	0	0	0	0	0
97.000000	4350.769231	4419.487179	4406.666667	3721.025641	4371.794872	4610.256410	4630.769231	4530.769231	4024.615385	4096.410256	4507.179487	4428.205128	4234.358974	3952.820513	1558.000000	1564.000000	57.989000	0.000000	0.000000	0.000000	0.000000	1	1	0	0	0	0	0	0	0	0	0	0	0	0	0	0
98.000000	4347.179487	4417.948718	4409.743590	3720.000000	4374.358974	4609.743590	4631.794872	4531.794872	4024.102564	4097.948718	4506.666667	4430.256410	4231.794872	3943.076923	1572.000000	1565.000000	58.005000	0.000000	0.000000	0.000000	0.000000	1	1	0	0	0	0	0	0	0	0	0	0	0	0	0	0
99.000000	4349.743590	4419.487179	4412.820513	3711.282051	4373.333333	4607.179487	4623.076923	4532.307692	4027.692308	4106.153846	4508.205128	4435.897436	4230.769231	3936.410256	1593.000000	1570.000000	58.005000	0.000000	0.000000	0.000000	0.000000	1	1	0	0	0	0	0	0	0	0	0	0	0	0	0	0
100.000000	4349.230769	4420.512821	4409.230769	3704.615385	4372.820513	4611.282051	4629.230769	4530.256410	4027.692308	4114.358974	4509.230769	4436.923077	4228.205128	3930.769231	1611.000000	1570.000000	58.020000	0.000000	0.000000	0.000000	0.000000	1	1	0	0	0	0	0	0	0	0	0	0	0	0	0	0
101.000000	4348.717949	4418.974359	4408.205128	3701.025641	4370.769231	4609.230769	4632.307692	4533.846154	4026.666667	4118.974359	4512.307692	4440.512821	4227.179487	3923.076923	1628.000000	1571.000000	58.020000	0.000000	0.000000	0.000000	0.000000	1	1	0	0	0	0	0	0	0	0	0	0	0	0	0	0
102.000000	4351.794872	4416.923077	4410.769231	3703.589744	4373.846154	4607.692308	4629.743590	4533.333333	4025.641026	4121.025641	4512.307692	4438.974359	4220.512821	3912.307692	1641.000000	1566.000000	58.036000	0.000000	0.000000	0.000000	0.000000	1	1	0	0	0	0	0	0	0	0	0	0	0	0	0	0
103.000000	4350.769231	4417.435897	4411.794872	3705.128205	4369.743590	4606.666667	4616.923077	4533.846154	4028.717949	4121.538462	4512.820513	4440.000000	4223.589744	3915.897436	1653.000000	1565.000000	58.036000	0.000000	0.000000	0.000000	0.000000	1	1	0	0	0	0	0	0	0	0	0	0	0	0	0	0
104.000000	4347.179487	4416.923077	4408.717949	3707.692308	4372.307692	4610.256410	4624.615385	4532.820513	4027.179487	4113.333333	4507.692308	4437.435897	4227.179487	3927.179487	1665.000000	1552.000000	58.052000	0.000000	0.000000	0.000000	0.000000	1	1	0	0	0	0	0	0	0	0	0	0	0	0	0	0
105.000000	4347.179487	4419.487179	4407.692308	3708.717949	4371.282051	4606.666667	4630.256410	4529.230769	4027.179487	4098.974359	4503.076923	4437.435897	4233.846154	3947.692308	1671.000000	1545.000000	58.052000	0.000000	0.000000	0.000000	0.000000	1	1	0	0	0	0	0	0	0	0	0	0	0	0	0	0
106.000000	4349.230769	4422.051282	4408.717949	3713.333333	4374.358974	4607.692308	4631.282051	4526.153846	4026.666667	4086.666667	4496.410256	4431.794872	4238.974359	3968.717949	1675.000000	1543.000000	58.067000	0.000000	0.000000	0.000000	0.000000	1	1	0	0	0	0	0	0	0	0	0	0	0	0	0	0
107.000000	4351.794872	4422.051282	4408.205128	3713.846154	4371.794872	4609.743590	4617.435897	4528.205128	4024.102564	4078.461538	4492.820513	4424.615385	4243.589744	3989.743590	1680.000000	1550.000000	58.067000	0.000000	0.000000	0.000000	0.000000	1	1	0	0	0	0	0	0	0	0	0	0	0	0	0	0
108.000000	4356.923077	4418.974359	4409.230769	3715.384615	4371.794872	4610.769231	4617.948718	4524.615385	4022.051282	4072.307692	4493.333333	4421.025641	4244.102564	4002.051282	1689.000000	1553.000000	58.083000	0.000000	0.000000	0.000000	0.000000	1	1	0	0	0	0	0	0	0	0	0	0	0	0	0	0
109.000000	4356.410256	4421.025641	4410.256410	3717.435897	4368.205128	4609.743590	4622.564103	4519.487179	4021.538462	4070.256410	4498.461538	4421.538462	4246.666667	4001.025641	1697.000000	1558.000000	58.083000	0.000000	0.000000	0.000000	0.000000	1	1	0	0	0	0	0	0	0	0	0	0	0	0	0	0
110.000000	4350.769231	4423.589744	4409.743590	3717.435897	4367.692308	4609.230769	4625.641026	4524.615385	4020.000000	4077.435897	4504.102564	4426.666667	4246.153846	3989.743590	1706.000000	1565.000000	58.099000	0.000000	0.000000	0.000000	0.000000	1	1	0	0	0	0	0	0	0	0	0	0	0	0	0	0
111.000000	4348.205128	4422.051282	4408.205128	3718.974359	4366.153846	4609.230769	4620.512821	4529.743590	4018.974359	4090.256410	4509.230769	4432.820513	4239.487179	3972.307692	1712.000000	1569.000000	58.099000	0.000000	0.000000	0.000000	0.000000	1	1	0	0	0	0	0	0	0	0	0	0	0	0	0	0
112.000000	4349.743590	4423.589744	4410.256410	3716.923077	4364.615385	4609.743590	4616.410256	4532.307692	4021.538462	4103.589744	4516.410256	4437.435897	4233.846154	3948.717949	1720.000000	1572.000000	58.114000	0.000000	0.000000	0.000000	0.000000	1	1	0	0	0	0	0	0	0	0	0	0	0	0	0	0
113.000000	4347.692308	4426.153846	4410.769231	3709.743590	4368.717949	4609.230769	4627.179487	4532.820513	4024.102564	4112.820513	4515.384615	4435.384615	4226.666667	3925.641026	1729.000000	1573.000000	58.114000	0.000000	0.000000	0.000000	0.000000	1	1	0	0	0	0	0	0	0	0	0	0	0	0	0	0
114.000000	4344.102564	4423.589744	4408.205128	3706.666667	4372.820513	4607.179487	4630.769231	4532.820513	4025.128205	4116.410256	4511.282051	4440.000000	4225.128205	3923.076923	1732.000000	1580.000000	58.130000	0.000000	0.000000	0.000000	0.000000	1	1	0	0	0	0	0	0	0	0	0	0	0	0	0	0
115.000000	4344.615385	4421.538462	4407.692308	3715.384615	4379.487179	4609.230769	4628.205128	4530.256410	4025.641026	4113.846154	4509.743590	4440.512821	4226.153846	3928.717949	1733.000000	1584.000000	58.130000	0.000000	0.000000	0.000000	0.000000	1	1	0	0	0	0	0	0	0	0	0	0	0	0	0	0
116.000000	4349.230769	4423.589744	4410.769231	3714.871795	4372.307692	4610.769231	4617.435897	4533.333333	4027.692308	4104.615385	4510.256410	4437.948718	4232.307692	3940.000000	1729.000000	1590.000000	58.145000	0.000000	0.000000	0.000000	0.000000	1	1	0	0	0	0	0	0	0	0	0	0	0	0	0	0
117.000000	4349.743590	4422.564103	4408.205128	3711.282051	4372.820513	4610.256410	4624.102564	4530.769231	4025.641026	4092.307692	4503.589744	4429.743590	4234.358974	3956.923077	1728.000000	1597.000000	58.145000	0.000000	0.000000	0.000000	0.000000	1	1	0	0	0	0	0	0	0	0	0	0	0	0	0	0
118.000000	4347.692308	4422.051282	4405.128205	3710.769231	4372.820513	4605.641026	4626.666667	4528.205128	4023.589744	4083.589744	4501.025641	4428.205128	4240.512821	3975.897436	1727.000000	1603.000000	58.161000	0.000000	0.000000	0.000000	0.000000	1	1	0	0	0	0	0	0	0	0	0	0	0	0	0	0
119.000000	4348.717949	4424.102564	4405.128205	3714.871795	4376.410256	4607.179487	4633.333333	4528.717949	4023.076923	4081.538462	4502.564103	4423.589744	4241.538462	3980.000000	1728.000000	1609.000000	58.161000	0.000000	0.000000	0.000000	0.000000	1	1	0	0	0	0	0	0	0	0	0	0	0	0	0	0
120.000000	4353.333333	4423.589744	4408.717949	3715.384615	4371.794872	4609.230769	4624.102564	4528.717949	4022.564103	4085.641026	4503.589744	4424.615385	4241.538462	3977.435897	1727.000000	1613.000000	58.177000	0.000000	0.000000	0.000000	0.000000	1	1	0	0	0	0	0	0	0	0	0	0	0	0	0	0
121.000000	4352.307692	4421.025641	4408.205128	3715.384615	4375.897436	4609.743590	4620.000000	4526.153846	4019.487179	4094.358974	4503.589744	4426.666667	4235.384615	3963.076923	1725.000000	1617.000000	58.177000	0.000000	0.000000	0.000000	0.000000	1	1	0	0	0	0	0	0	0	0	0	0	0	0	0	0
122.000000	4349.230769	4421.025641	4408.205128	3713.333333	4374.871795	4605.641026	4623.589744	4529.230769	4018.974359	4099.487179	4507.179487	4433.333333	4232.820513	3950.256410	1722.000000	1616.000000	58.192000	0.000000	0.000000	0.000000	0.000000	1	1	0	0	0	0	0	0	0	0	0	0	0	0	0	0
123.000000	4348.717949	4419.487179	4407.692308	3711.282051	4371.282051	4606.666667	4631.282051	4531.282051	4021.025641	4097.948718	4507.692308	4435.897436	4233.333333	3948.205128	1721.000000	1618.000000	58.192000	0.000000	0.000000	0.000000	0.000000	1	1	0	0	0	0	0	0	0	0	0	0	0	0	0	0
124.000000	4348.717949	4419.487179	4410.256410	3709.230769	4370.256410	4607.179487	4623.589744	4529.743590	4022.564103	4096.923077	4506.153846	4434.358974	4235.384615	3953.333333	1729.000000	1612.000000	58.208000	0.000000	0.000000	0.000000	0.000000	1	1	0	0	0	0	0	0	0	0	0	0	0	0	0	0
125.000000	4348.205128	4421.538462	4411.282051	3709.743590	4374.358974	4608.205128	4617.948718	4528.717949	4024.615385	4097.435897	4504.102564	4431.794872	4235.384615	3954.871795	1737.000000	1615.000000	58.208000	0.000000	0.000000	0.000000	0.000000	1	1	0	0	0	0	0	0	0	0	0	0	0	0	0	0
126.000000	4352.307692	4422.051282	4407.179487	3713.846154	4374.871795	4608.717949	4621.025641	4528.717949	4024.102564	4097.435897	4504.615385	4430.769231	4235.384615	3956.410256	1741.000000	1618.000000	58.224000	0.000000	0.000000	0.000000	0.000000	1	1	0	0	0	0	0	0	0	0	0	0	0	0	0	0
127.000000	4354.358974	4417.948718	4404.102564	3715.384615	4373.333333	4607.179487	4625.128205	4528.205128	4022.051282	4096.410256	4507.692308	4427.179487	4235.897436	3957.435897	1739.000000	1616.000000	58.224000	0.000000	0.000000	0.000000	0.000000	1	1	0	0	0	0	0	0	0	0	0	0	0	0	0	0
128.000000	4354.358974	4418.974359	4405.128205	3717.948718	4373.333333	4604.102564	4623.589744	4528.205128	4025.128205	4096.923077	4507.692308	4424.102564	4235.897436	3952.307692	1739.000000	1617.000000	58.239000	0.000000	0.000000	0.000000	0.000000	1	1	0	0	0	0	0	0	0	0	0	0	0	0	0	0
0.000000	4354.358974	4418.974359	4408.205128	3718.461538	4372.307692	4604.102564	4620.512821	4530.769231	4028.717949	4097.435897	4507.179487	4430.256410	4235.384615	3945.128205	1741.000000	1614.000000	58.239000	0.000000	0.000000	0.000000	0.000000	1	1	0	0	0	0	0	0	0	0	0	0	0	0	0	0
1.000000	4345.128205	4416.923077	4408.717949	3713.333333	4371.282051	4607.692308	4623.076923	4533.846154	4025.641026	4100.512821	4507.692308	4436.923077	4229.230769	3934.358974	1739.000000	1607.000000	58.255000	0.000000	0.000000	0.000000	0.000000	1	1	0	0	0	0	0	0	0	0	0	0	0	0	0	0
2.000000	4337.435897	4420.000000	4409.230769	3707.179487	4369.743590	4606.666667	4621.538462	4533.846154	4024.102564	4109.230769	4508.205128	4441.538462	4226.666667	3932.307692	1730.000000	1606.000000	58.255000	0.000000	0.000000	0.000000	0.000000	1	1	0	0	0	0	0	0	0	0	0	0	0	0	0	0
3.000000	4345.641026	4421.538462	4409.230769	3707.179487	4371.794872	4608.205128	4620.000000	4531.794872	4026.666667	4112.307692	4507.692308	4440.000000	4228.717949	3937.435897	1720.000000	1612.000000	58.270000	0.000000	0.000000	0.000000	0.000000	1	1	0	0	0	0	0	0	0	0	0	0	0	0	0	0
4.000000	4354.871795	4419.487179	4409.743590	3706.666667	4370.769231	4607.179487	4622.564103	4532.307692	4027.692308	4102.564103	4508.717949	4436.923077	4232.820513	3946.666667	1712.000000	1618.000000	58.270000	0.000000	0.000000	0.000000	0.000000	1	1	0	0	0	0	0	0	0	0	0	0	0	0	0	0
5.000000	4351.794872	4421.025641	4409.230769	3709.743590	4371.282051	4607.179487	4633.333333	4529.743590	4024.615385	4089.743590	4504.615385	4427.692308	4235.384615	3962.051282	1711.000000	1623.000000	58.286000	0.000000	0.000000	0.000000	0.000000	1	1	0	0	0	0	0	0	0	0	0	0	0	0	0	0
6.000000	4349.230769	4422.051282	4406.666667	3713.333333	4368.717949	4609.230769	4625.641026	4526.666667	4022.051282	4083.076923	4501.538462	4425.128205	4240.000000	3984.615385	1717.000000	1624.000000	58.286000	0.000000	0.000000	0.000000	0.000000	1	1	0	0	0	0	0	0	0	0	0	0	0	0	0	0
7.000000	4349.230769	4419.487179	4405.128205	3718.461538	4372.307692	4613.333333	4616.923077	4528.205128	4021.025641	4083.589744	4502.051282	4428.717949	4237.948718	3985.641026	1722.000000	1628.000000	58.302000	0.000000	0.000000	0.000000	0.000000	1	1	0	0	0	0	0	0	0	0	0	0	0	0	0	0
8.000000	4349.230769	4422.564103	4407.179487	3717.435897	4372.307692	4608.205128	4619.487179	4529.230769	4021.538462	4093.333333	4506.666667	4433.333333	4233.846154	3965.641026	1732.000000	1630.000000	58.302000	0.000000	0.000000	0.000000	0.000000	1	1	0	0	0	0	0	0	0	0	0	0	0	0	0	0
9.000000	4351.794872	4420.512821	4407.692308	3713.846154	4370.769231	4602.564103	4635.897436	4528.205128	4020.512821	4102.564103	4510.769231	4430.769231	4227.692308	3945.128205	1740.000000	1629.000000	58.317000	0.000000	0.000000	0.000000	0.000000	1	1	0	0	0	0	0	0	0	0	0	0	0	0	0	0
10.000000	4352.307692	4416.923077	4407.692308	3709.743590	4366.666667	4604.102564	4632.307692	4533.333333	4020.512821	4106.153846	4512.820513	4431.794872	4226.666667	3936.410256	1749.000000	1628.000000	58.317000	0.000000	0.000000	0.000000	0.000000	1	1	0	0	0	0	0	0	0	0	0	0	0	0	0	0
11.000000	4348.717949	4418.461538	4405.641026	3713.333333	4372.820513	4608.205128	4621.538462	4536.923077	4022.564103	4108.717949	4512.307692	4436.923077	4227.179487	3929.230769	1754.000000	1629.000000	58.333000	0.000000	0.000000	0.000000	0.000000	1	1	0	0	0	0	0	0	0	0	0	0	0	0	0	0
12.000000	4347.179487	4421.538462	4409.230769	3711.794872	4376.923077	4609.743590	4617.948718	4532.820513	4024.615385	4110.256410	4510.256410	4441.538462	4230.769231	3929.743590	1751.000000	1634.000000	58.333000	0.000000	0.000000	0.000000	0.000000	1	1	0	0	0	0	0	0	0	0	0	0	0	0	0	0
13.000000	4348.717949	4419.487179	4412.307692	3707.179487	4372.307692	4608.205128	4626.666667	4529.743590	4023.589744	4105.128205	4508.717949	4440.512821	4229.743590	3936.923077	1743.000000	1639.000000	58.349000	0.000000	0.000000	0.000000	0.000000	1	1	0	0	0	0	0	0	0	0	0	0	0	0	0	0
14.000000	4352.307692	4419.487179	4409.230769	3715.384615	4368.717949	4604.102564	4631.794872	4529.743590	4023.076923	4097.435897	4505.641026	4431.794872	4229.743590	3948.205128	1732.000000	1648.000000	58.349000	0.000000	0.000000	0.000000	0.000000	1	1	0	0	0	0	0	0	0	0	0	0	0	0	0	0
15.000000	4357.948718	4419.487179	4406.153846	3724.102564	4372.820513	4604.615385	4628.205128	4529.230769	4025.128205	4094.358974	4502.564103	4425.128205	4234.871795	3958.974359	1716.000000	1659.000000	58.364000	0.000000	0.000000	0.000000	0.000000	1	1	0	0	0	0	0	0	0	0	0	0	0	0	0	0
16.000000	4360.000000	4418.461538	4408.717949	3720.000000	4375.384615	4610.256410	4624.102564	4528.205128	4024.102564	4089.743590	4499.487179	4420.512821	4238.974359	3967.692308	1690.000000	1678.000000	58.364000	0.000000	0.000000	0.000000	0.000000	1	1	0	0	0	0	0	0	0	0	0	0	0	0	0	0
17.000000	4353.333333	4420.000000	4408.205128	3715.897436	4375.384615	4611.282051	4628.205128	4525.128205	4020.512821	4083.076923	4500.512821	4421.025641	4241.025641	3979.487179	1666.000000	1692.000000	58.380000	0.000000	0.000000	0.000000	0.000000	1	1	0	0	0	0	0	0	0	0	0	0	0	0	0	0
18.000000	4343.589744	4424.102564	4406.666667	3716.923077	4375.897436	4609.230769	4634.358974	4522.051282	4020.512821	4081.538462	4501.538462	4428.717949	4240.512821	3984.102564	1642.000000	1710.000000	58.380000	0.000000	0.000000	0.000000	0.000000	1	1	0	0	0	0	0	0	0	0	0	0	0	0	0	0
19.000000	4338.461538	4425.128205	4410.769231	3713.333333	4372.820513	4608.717949	4629.230769	4524.102564	4021.025641	4086.666667	4498.461538	4437.435897	4238.461538	3976.410256	1626.000000	1725.000000	58.396000	0.000000	0.000000	0.000000	0.000000	1	1	0	0	0	0	0	0	0	0	0	0	0	0	0	0
20.000000	4341.538462	4425.128205	4409.230769	3711.282051	4373.846154	4610.769231	4623.589744	4525.128205	4018.461538	4094.358974	4497.435897	4429.230769	4233.846154	3962.564103	1625.000000	1733.000000	58.396000	0.000000	0.000000	0.000000	0.000000	1	1	0	0	0	0	0	0	0	0	0	0	0	0	0	0
21.000000	4347.179487	4425.128205	4406.666667	3713.846154	4371.282051	4608.717949	4622.564103	4525.128205	4020.000000	4095.384615	4503.589744	4424.615385	4231.282051	3953.846154	1621.000000	1735.000000	58.411000	0.000000	0.000000	0.000000	0.000000	1	1	0	0	0	0	0	0	0	0	0	0	0	0	0	0
22.000000	4347.179487	4422.564103	4403.589744	3720.512821	4370.769231	4607.179487	4630.769231	4524.102564	4022.051282	4096.410256	4509.230769	4427.692308	4228.205128	3949.230769	1612.000000	1734.000000	58.411000	0.000000	0.000000	0.000000	0.000000	1	1	0	0	0	0	0	0	0	0	0	0	0	0	0	0
23.000000	4348.205128	4419.487179	4402.051282	3722.051282	4369.743590	4607.692308	4629.743590	4523.076923	4020.000000	4096.923077	4505.641026	4425.128205	4230.256410	3950.256410	1606.000000	1736.000000	58.427000	0.000000	0.000000	0.000000	0.000000	1	1	0	0	0	0	0	0	0	0	0	0	0	0	0	0
24.000000	4350.769231	4415.384615	4397.948718	3716.410256	4369.743590	4606.666667	4620.000000	4522.564103	4018.974359	4096.410256	4500.512821	4416.410256	4231.794872	3949.230769	1630.000000	1720.000000	58.427000	0.000000	0.000000	0.000000	0.000000	1	1	0	0	0	0	0	0	0	0	0	0	0	0	0	0
25.000000	4343.589744	4408.205128	4388.717949	3709.743590	4365.128205	4597.948718	4608.205128	4520.000000	4020.512821	4097.948718	4504.615385	4417.435897	4231.282051	3945.641026	1641.000000	1717.000000	58.442000	0.000000	0.000000	0.000000	0.000000	1	1	0	0	0	0	0	0	0	0	0	0	0	0	0	0
26.000000	4330.769231	4403.076923	4380.512821	3704.102564	4360.000000	4593.333333	4601.025641	4515.897436	4020.512821	4097.948718	4507.692308	4417.948718	4229.230769	3946.666667	1634.000000	1702.000000	58.442000	0.000000	0.000000	0.000000	0.000000	1	1	0	0	0	0	0	0	0	0	0	0	0	0	0	0
27.000000	4326.153846	4404.615385	4382.051282	3692.307692	4355.384615	4594.358974	4583.076923	4514.871795	4020.000000	4094.871795	4504.102564	4419.487179	4228.205128	3948.717949	1658.000000	1690.000000	58.458000	0.000000	0.000000	0.000000	0.000000	1	1	0	0	0	0	0	0	0	0	0	0	0	0	0	0
28.000000	4324.615385	4404.102564	4388.205128	3684.615385	4353.333333	4591.282051	4574.358974	4514.358974	4019.487179	4097.948718	4501.025641	4428.205128	4224.102564	3938.974359	1679.000000	1690.000000	58.458000	0.000000	0.000000	0.000000	0.000000	1	1	0	0	0	0	0	0	0	0	0	0	0	0	0	0
29.000000	4326.153846	4407.692308	4386.153846	3686.666667	4352.820513	4587.179487	4594.871795	4512.820513	4020.512821	4104.615385	4507.179487	4428.205128	4224.615385	3929.230769	1695.000000	1663.000000	58.474000	0.000000	0.000000	0.000000	0.000000	1	1	0	0	0	0	0	0	0	0	0	0	0	0	0	0
30.000000	4332.820513	4410.769231	4390.769231	3695.897436	4356.410256	4593.846154	4616.410256	4514.871795	4024.615385	4098.974359	4510.256410	4422.564103	4230.256410	3938.974359	1712.000000	1641.000000	58.474000	0.000000	0.000000	0.000000	0.000000	1	1	0	0	0	0	0	0	0	0	0	0	0	0	0	0
31.000000	4346.666667	4420.000000	4406.666667	3711.794872	4365.128205	4607.179487	4614.871795	4524.102564	4027.692308	4097.948718	4510.256410	4425.641026	4231.282051	3943.076923	1732.000000	1633.000000	58.489000	0.000000	0.000000	0.000000	0.000000	1	1	0	0	0	0	0	0	0	0	0	0	0	0	0	0
32.000000	4372.307692	4432.820513	4432.820513	3723.076923	4377.948718	4618.461538	4632.307692	4534.358974	4026.153846	4116.923077	4515.384615	4436.923077	4222.564103	3913.333333	1747.000000	1613.000000	58.489000	0.000000	0.000000	0.000000	0.000000	1	1	0	0	0	0	0	0	0	0	0	0	0	0	0	0
33.000000	4378.461538	4434.871795	4436.410256	3718.461538	4384.102564	4621.538462	4669.743590	4535.384615	4024.102564	4133.333333	4516.410256	4437.435897	4218.974359	3892.307692	1760.000000	1590.000000	58.505000	0.000000	0.000000	0.000000	0.000000	1	1	0	0	0	0	0	0	0	0	0	0	0	0	0	0
34.000000	4358.974359	4429.743590	4420.512821	3723.076923	4387.692308	4618.461538	4677.948718	4534.871795	4027.179487	4132.307692	4511.794872	4439.487179	4220.000000	3902.051282	1772.000000	1577.000000	58.505000	0.000000	0.000000	0.000000	0.000000	1	1	0	0	0	0	0	0	0	0	0	0	0	0	0	0
35.000000	4342.051282	4426.153846	4402.051282	3716.923077	4372.307692	4613.333333	4624.102564	4531.282051	4028.717949	4122.051282	4514.358974	4442.051282	4215.897436	3904.102564	1787.000000	1562.000000	58.521000	0.000000	0.000000	0.000000	0.000000	1	1	0	0	0	0	0	0	0	0	0	0	0	0	0	0
36.000000	4324.102564	4414.358974	4374.871795	3682.564103	4349.230769	4596.410256	4562.051282	4509.743590	4023.076923	4109.743590	4512.820513	4426.666667	4211.282051	3903.589744	1802.000000	1541.000000	58.521000	0.000000	0.000000	0.000000	0.000000	1	1	0	0	0	0	0	0	0	0	0	0	0	0	0	0
37.000000	4312.820513	4407.179487	4366.666667	3669.230769	4349.230769	4585.128205	4572.307692	4493.846154	4021.538462	4094.358974	4497.948718	4411.282051	4220.000000	3940.512821	1818.000000	1531.000000	58.536000	0.000000	0.000000	0.000000	0.000000	1	1	0	0	0	0	0	0	0	0	0	0	0	0	0	0
38.000000	4334.871795	4421.538462	4396.410256	3700.512821	4370.769231	4603.589744	4633.846154	4511.794872	4027.179487	4083.076923	4493.333333	4417.435897	4233.846154	3978.974359	1831.000000	1515.000000	58.536000	0.000000	0.000000	0.000000	0.000000	1	1	0	0	0	0	0	0	0	0	0	0	0	0	0	0
39.000000	4362.051282	4430.769231	4420.512821	3730.256410	4387.179487	4621.025641	4653.846154	4527.179487	4027.179487	4076.923077	4497.435897	4421.538462	4238.461538	3985.128205	1837.000000	1499.000000	58.552000	0.000000	0.000000	0.000000	0.000000	1	1	0	0	0	0	0	0	0	0	0	0	0	0	0	0
40.000000	4358.974359	4426.666667	4409.743590	3727.692308	4383.589744	4616.923077	4623.076923	4520.000000	4021.538462	4072.307692	4495.384615	4412.307692	4240.000000	3993.333333	1832.000000	1506.000000	58.552000	0.000000	0.000000	0.000000	0.000000	1	1	0	0	0	0	0	0	0	0	0	0	0	0	0	0
41.000000	4353.846154	4425.641026	4407.179487	3723.076923	4385.641026	4615.897436	4630.256410	4517.948718	4017.435897	4075.897436	4496.410256	4410.769231	4236.923077	3996.410256	1834.000000	1496.000000	58.567000	0.000000	0.000000	0.000000	0.000000	1	1	0	0	0	0	0	0	0	0	0	0	0	0	0	0
42.000000	4353.846154	4427.692308	4415.384615	3723.076923	4385.128205	4617.948718	4652.307692	4526.153846	4018.461538	4090.769231	4507.692308	4427.179487	4235.897436	3968.205128	1844.000000	1501.000000	58.567000	0.000000	0.000000	0.000000	0.000000	1	1	0	0	0	0	0	0	0	0	0	0	0	0	0	0
43.000000	4352.820513	4427.179487	4410.256410	3728.717949	4390.256410	4618.461538	4658.461538	4528.205128	4023.589744	4110.769231	4513.333333	4435.897436	4229.230769	3921.025641	1851.000000	1516.000000	58.583000	0.000000	0.000000	0.000000	0.000000	1	1	0	0	0	0	0	0	0	0	0	0	0	0	0	0
44.000000	4358.461538	4426.666667	4405.641026	3723.589744	4385.641026	4620.000000	4641.025641	4525.641026	4024.615385	4121.538462	4517.435897	4432.307692	4222.564103	3902.051282	1841.000000	1518.000000	58.583000	0.000000	0.000000	0.000000	0.000000	1	1	0	0	0	0	0	0	0	0	0	0	0	0	0	0
45.000000	4356.410256	4424.615385	4378.461538	3705.128205	4380.000000	4616.923077	4629.230769	4520.000000	4019.487179	4112.307692	4512.820513	4412.820513	4220.000000	3914.871795	1846.000000	1582.000000	58.599000	0.000000	0.000000	0.000000	0.000000	1	1	0	0	0	0	0	0	0	0	0	0	0	0	0	0
46.000000	4340.512821	4421.025641	4371.794872	3703.589744	4375.897436	4604.615385	4624.615385	4513.846154	4019.487179	4094.358974	4496.410256	4408.717949	4229.230769	3948.717949	1825.000000	1650.000000	58.599000	0.000000	0.000000	0.000000	0.000000	1	1	0	0	0	0	0	0	0	0	0	0	0	0	0	0
47.000000	4319.487179	4420.512821	4340.512821	3720.512821	4374.871795	4605.641026	4628.717949	4510.256410	4022.564103	4081.538462	4493.333333	4403.589744	4239.487179	3975.897436	1834.000000	1694.000000	58.614000	0.000000	0.000000	0.000000	0.000000	1	1	0	0	0	0	0	0	0	0	0	0	0	0	0	0
48.000000	4322.564103	4423.076923	4294.358974	3726.666667	4380.000000	4610.769231	4625.128205	4505.641026	4017.948718	4066.666667	4501.538462	4385.641026	4242.051282	3995.897436	1823.000000	1723.000000	58.614000	0.000000	0.000000	0.000000	0.000000	1	1	0	0	0	0	0	0	0	0	0	0	0	0	0	0
49.000000	4329.230769	4422.564103	4313.846154	3711.282051	4368.717949	4605.128205	4602.051282	4502.051282	4012.820513	4058.974359	4490.769231	4368.205128	4244.615385	4014.871795	1824.000000	1731.000000	58.630000	0.000000	0.000000	0.000000	0.000000	1	1	0	0	0	0	0	0	0	0	0	0	0	0	0	0
50.000000	4314.871795	4418.974359	4367.179487	3726.666667	4358.974359	4596.923077	4614.871795	4502.051282	4012.307692	4078.461538	4483.076923	4382.564103	4236.923077	3987.179487	1814.000000	1736.000000	58.630000	0.000000	0.000000	0.000000	0.000000	1	1	0	0	0	0	0	0	0	0	0	0	0	0	0	0
51.000000	4307.692308	4413.333333	4379.487179	3744.615385	4373.846154	4603.589744	4647.179487	4505.128205	4011.282051	4097.435897	4492.307692	4409.743590	4231.794872	3955.384615	1812.000000	1736.000000	58.646000	0.000000	0.000000	0.000000	0.000000	1	1	0	0	0	0	0	0	0	0	0	0	0	0	0	0
52.000000	4315.384615	4418.974359	4378.461538	3735.384615	4371.794872	4607.179487	4651.282051	4512.307692	4013.846154	4088.717949	4481.538462	4400.512821	4235.384615	3988.717949	1815.000000	1741.000000	58.646000	0.000000	0.000000	0.000000	0.000000	1	1	0	0	0	0	0	0	0	0	0	0	0	0	0	0
53.000000	4339.487179	4449.743590	4391.794872	3716.410256	4294.871795	4586.153846	4615.384615	4524.615385	4016.410256	4083.589744	4475.384615	4393.333333	4236.923077	4024.102564	1834.000000	1730.000000	58.661000	0.000000	0.000000	0.000000	0.000000	1	1	0	0	0	0	0	0	0	0	0	0	0	0	0	0
54.000000	4366.153846	4466.153846	4369.230769	3686.666667	4286.153846	4583.589744	4595.384615	4525.641026	4013.333333	4094.871795	4492.820513	4399.487179	4227.179487	3993.846154	1852.000000	1726.000000	58.661000	0.000000	0.000000	0.000000	0.000000	1	1	0	0	0	0	0	0	0	0	0	0	0	0	0	0
55.000000	4332.820513	4428.717949	4379.487179	3668.205128	4400.000000	4610.256410	4585.128205	4514.871795	4015.897436	4094.358974	4498.461538	4449.743590	4229.230769	3965.641026	1858.000000	1700.000000	58.692000	0.000000	0.000000	0.000000	0.000000	1	1	0	0	0	0	0	0	0	0	0	0	0	0	0	0
56.000000	4259.487179	4386.666667	4420.000000	3705.128205	4469.743590	4627.179487	4589.743590	4510.769231	4021.538462	4089.230769	4494.358974	4499.487179	4232.820513	3948.717949	1866.000000	1669.000000	58.692000	0.000000	0.000000	0.000000	0.000000	1	1	0	0	0	0	0	0	0	0	0	0	0	0	0	0
