Counter	AF3	F7	F3	FC5	T7	P7	O1	O2	P8	T8	FC6	F4	F8	AF4	GyroX	GyroY	Timestamp	FUNC_ID	FUNC_VALUE	MARKER	SYNC_SIGNAL
37.000000	4360.512821	4402.564103	4403.076923	3712.307692	4384.102564	4611.794872	4626.666667	4520.512821	4024.102564	4098.974359	4515.897436	4440.000000	4249.230769	3953.846154	1741.000000	1677.000000	17.338000	0.000000	0.000000	0.000000	0.000000
38.000000	4361.538462	4404.102564	4403.589744	3711.794872	4384.615385	4611.794872	4630.256410	4527.179487	4024.615385	4098.974359	4516.410256	4441.538462	4249.230769	3953.333333	1742.000000	1676.000000	17.338000	0.000000	0.000000	0.000000	0.000000
39.000000	4361.538462	4405.128205	4403.076923	3712.307692	4384.615385	4613.846154	4635.384615	4529.230769	4026.666667	4098.974359	4514.871795	4440.000000	4249.230769	3953.333333	1741.000000	1677.000000	17.354000	0.000000	0.000000	0.000000	0.000000
40.000000	4362.051282	4404.615385	4403.076923	3714.871795	4386.153846	4613.333333	4633.846154	4525.641026	4025.641026	4098.974359	4518.974359	4441.025641	4249.230769	3950.256410	1741.000000	1676.000000	17.354000	0.000000	0.000000	0.000000	0.000000
41.000000	4363.076923	4403.076923	4403.589744	3712.820513	4385.641026	4614.871795	4630.256410	4525.128205	4025.128205	4098.974359	4521.025641	4442.051282	4249.230769	3950.256410	1739.000000	1677.000000	17.370000	0.000000	0.000000	0.000000	0.000000
42.000000	4362.051282	4405.641026	4403.076923	3710.769231	4384.615385	4616.410256	4630.769231	4524.615385	4025.641026	4098.974359	4513.846154	4440.512821	4249.230769	3954.871795	1741.000000	1677.000000	17.370000	0.000000	0.000000	0.000000	0.000000
43.000000	4360.512821	4410.769231	4405.128205	3715.384615	4385.128205	4610.769231	4630.256410	4523.589744	4025.128205	4098.974359	4511.794872	4438.461538	4248.717949	3957.435897	1740.000000	1677.000000	17.385000	0.000000	0.000000	0.000000	0.000000
44.000000	4361.538462	4409.743590	4406.666667	3715.897436	4384.615385	4607.179487	4627.179487	4522.564103	4025.128205	4098.974359	4515.897436	4441.538462	4248.205128	3952.307692	1740.000000	1677.000000	17.385000	0.000000	0.000000	0.000000	0.000000
45.000000	4362.564103	4407.179487	4404.102564	3710.769231	4384.102564	4609.743590	4629.230769	4523.076923	4026.666667	4098.974359	4512.307692	4444.102564	4248.205128	3948.717949	1741.000000	1675.000000	17.401000	0.000000	0.000000	0.000000	0.000000
46.000000	4362.051282	4411.282051	4403.076923	3712.820513	4384.615385	4610.769231	4631.794872	4524.102564	4025.641026	4098.974359	4513.846154	4441.025641	4247.692308	3950.256410	1740.000000	1676.000000	17.401000	0.000000	0.000000	0.000000	0.000000
47.000000	4361.025641	4410.256410	4404.615385	3717.435897	4385.128205	4610.256410	4629.743590	4524.102564	4024.102564	4098.974359	4522.051282	4439.487179	4248.717949	3953.333333	1741.000000	1675.000000	17.416000	0.000000	0.000000	0.000000	0.000000
48.000000	4362.051282	4406.153846	4406.153846	3714.358974	4383.589744	4612.307692	4627.179487	4525.641026	4024.102564	4098.974359	4519.487179	4440.000000	4250.256410	3954.358974	1741.000000	1675.000000	17.416000	0.000000	0.000000	0.000000	0.000000
49.000000	4361.538462	4408.205128	4406.153846	3711.282051	4382.051282	4610.769231	4629.230769	4527.692308	4026.153846	4098.974359	4513.333333	4438.461538	4250.256410	3952.307692	1742.000000	1674.000000	17.432000	0.000000	0.000000	0.000000	0.000000
50.000000	4359.487179	4409.230769	4405.641026	3714.871795	4383.076923	4610.256410	4632.820513	4527.179487	4025.641026	4098.974359	4515.384615	4438.461538	4249.230769	3953.333333	1741.000000	1675.000000	17.432000	0.000000	0.000000	0.000000	0.000000
51.000000	4360.512821	4404.102564	4405.641026	3716.410256	4383.589744	4612.307692	4631.282051	4526.153846	4022.564103	4098.974359	4516.923077	4440.512821	4249.230769	3955.897436	1742.000000	1676.000000	17.448000	0.000000	0.000000	0.000000	0.000000
52.000000	4363.076923	4403.076923	4405.128205	3714.871795	4382.051282	4610.769231	4628.205128	4525.128205	4024.615385	4098.974359	4514.871795	4440.512821	4249.230769	3955.897436	1740.000000	1676.000000	17.448000	0.000000	0.000000	0.000000	0.000000
53.000000	4362.051282	4405.641026	4403.076923	3714.358974	4381.025641	4609.743590	4628.717949	4522.051282	4026.666667	4098.974359	4514.358974	4438.974359	4249.230769	3955.384615	1740.000000	1676.000000	17.463000	0.000000	0.000000	0.000000	0.000000
54.000000	4360.512821	4405.641026	4403.589744	3713.846154	4382.564103	4612.820513	4629.743590	4523.076923	4024.615385	4098.974359	4516.410256	4441.538462	4249.230769	3954.358974	1740.000000	1676.000000	17.463000	0.000000	0.000000	0.000000	0.000000
55.000000	4362.051282	4406.153846	4406.666667	3712.820513	4383.076923	4612.307692	4628.717949	4528.717949	4022.564103	4098.974359	4515.384615	4442.564103	4247.692308	3952.820513	1741.000000	1675.000000	17.479000	0.000000	0.000000	0.000000	0.000000
56.000000	4363.589744	4405.641026	4407.692308	3713.846154	4381.538462	4609.230769	4628.717949	4528.717949	4023.589744	4098.974359	4513.846154	4440.000000	4248.205128	3952.820513	1741.000000	1675.000000	17.479000	0.000000	0.000000	0.000000	0.000000
57.000000	4361.538462	4406.666667	4404.615385	3713.846154	4382.564103	4610.769231	4630.769231	4523.076923	4025.128205	4098.974359	4517.948718	4441.025641	4250.256410	3955.384615	1741.000000	1675.000000	17.495000	0.000000	0.000000	0.000000	0.000000
58.000000	4362.051282	4408.717949	4403.589744	3711.282051	4384.102564	4612.307692	4631.282051	4523.076923	4025.641026	4098.974359	4521.025641	4444.102564	4249.230769	3954.871795	1740.000000	1676.000000	17.495000	0.000000	0.000000	0.000000	0.000000
59.000000	4363.076923	4405.641026	4408.205128	3712.820513	4382.564103	4610.256410	4630.256410	4527.692308	4026.666667	4098.974359	4516.923077	4443.589744	4248.717949	3953.846154	1740.000000	1677.000000	17.510000	0.000000	0.000000	0.000000	0.000000
60.000000	4361.538462	4403.589744	4408.717949	3715.897436	4382.564103	4607.692308	4627.692308	4528.205128	4025.641026	4098.974359	4513.846154	4441.025641	4249.230769	3955.384615	1739.000000	1679.000000	17.510000	0.000000	0.000000	0.000000	0.000000
61.000000	4361.025641	4406.153846	4406.153846	3713.333333	4382.564103	4606.666667	4627.692308	4526.666667	4022.564103	4098.974359	4520.000000	4441.538462	4247.692308	3956.410256	1741.000000	1680.000000	17.530000	0.000000	0.000000	0.000000	0.000000
62.000000	4362.564103	4405.641026	4407.179487	3711.282051	4382.051282	4606.153846	4629.230769	4525.641026	4023.589744	4098.974359	4522.564103	4442.564103	4244.615385	3955.897436	1740.000000	1676.000000	17.538000	0.000000	0.000000	0.000000	0.000000
63.000000	4363.589744	4403.076923	4407.692308	3715.384615	4382.051282	4607.179487	4630.769231	4526.666667	4026.666667	4098.974359	4516.410256	4442.564103	4246.153846	3955.897436	1740.000000	1676.000000	17.546000	0.000000	0.000000	0.000000	0.000000
64.000000	4363.076923	4405.641026	4406.153846	3716.410256	4382.564103	4609.230769	4630.769231	4527.692308	4025.641026	4098.974359	4511.282051	4441.538462	4249.743590	3955.897436	1742.000000	1674.000000	17.554000	0.000000	0.000000	0.000000	0.000000
65.000000	4362.564103	4405.641026	4406.153846	3714.358974	4381.025641	4609.230769	4630.769231	4526.666667	4024.102564	4098.974359	4514.358974	4438.974359	4250.769231	3954.871795	1741.000000	1676.000000	17.555000	0.000000	0.000000	0.000000	0.000000
66.000000	4363.076923	4402.564103	4405.128205	3715.384615	4380.512821	4611.282051	4631.282051	4525.641026	4025.641026	4098.974359	4517.435897	4437.948718	4248.205128	3956.410256	1741.000000	1675.000000	17.555000	0.000000	0.000000	0.000000	0.000000
67.000000	4363.076923	4404.615385	4404.102564	3714.871795	4385.128205	4612.820513	4630.769231	4528.205128	4025.128205	4098.974359	4512.307692	4438.461538	4246.666667	3954.358974	1742.000000	1676.000000	17.575000	0.000000	0.000000	0.000000	0.000000
68.000000	4362.051282	4409.230769	4405.641026	3712.307692	4387.179487	4612.820513	4631.794872	4529.743590	4024.102564	4098.974359	4510.769231	4438.461538	4247.692308	3950.256410	1741.000000	1677.000000	17.575000	0.000000	0.000000	0.000000	0.000000
69.000000	4361.025641	4406.153846	4404.102564	3711.794872	4384.102564	4611.282051	4634.358974	4526.153846	4026.153846	4098.974359	4515.897436	4438.461538	4247.179487	3952.820513	1741.000000	1679.000000	17.591000	0.000000	0.000000	0.000000	0.000000
70.000000	4361.025641	4402.051282	4401.538462	3711.794872	4382.564103	4613.846154	4636.410256	4526.153846	4027.179487	4098.974359	4518.461538	4439.487179	4247.179487	3955.384615	1742.000000	1678.000000	17.591000	0.000000	0.000000	0.000000	0.000000
71.000000	4360.000000	4405.641026	4402.564103	3710.256410	4384.615385	4617.435897	4635.384615	4526.153846	4026.153846	4098.974359	4517.435897	4438.974359	4250.769231	3952.820513	1741.000000	1676.000000	17.606000	0.000000	0.000000	0.000000	0.000000
72.000000	4357.435897	4404.615385	4403.589744	3710.769231	4385.128205	4616.923077	4634.871795	4524.102564	4024.615385	4098.974359	4515.897436	4437.948718	4253.333333	3954.358974	1742.000000	1676.000000	17.606000	0.000000	0.000000	0.000000	0.000000
73.000000	4357.435897	4403.589744	4402.564103	3713.846154	4384.102564	4615.897436	4634.358974	4525.128205	4023.076923	4098.974359	4517.435897	4437.948718	4251.282051	3955.384615	1742.000000	1676.000000	17.622000	0.000000	0.000000	0.000000	0.000000
74.000000	4361.025641	4409.230769	4401.538462	3713.846154	4383.589744	4616.410256	4634.871795	4525.128205	4023.589744	4098.974359	4517.948718	4437.435897	4248.205128	3950.256410	1742.000000	1678.000000	17.622000	0.000000	0.000000	0.000000	0.000000
75.000000	4361.025641	4409.230769	4400.000000	3711.794872	4382.051282	4616.410256	4636.923077	4524.102564	4023.589744	4098.974359	4510.769231	4437.948718	4249.230769	3950.256410	1743.000000	1677.000000	17.637000	0.000000	0.000000	0.000000	0.000000
76.000000	4356.923077	4408.205128	4398.974359	3711.794872	4384.102564	4614.871795	4635.384615	4525.128205	4023.589744	4098.974359	4505.128205	4438.974359	4249.230769	3956.923077	1741.000000	1678.000000	17.637000	0.000000	0.000000	0.000000	0.000000
77.000000	4357.435897	4410.256410	4402.564103	3714.871795	4386.666667	4615.897436	4631.282051	4526.153846	4026.153846	4098.974359	4511.794872	4438.461538	4247.179487	3955.897436	1741.000000	1678.000000	17.653000	0.000000	0.000000	0.000000	0.000000
78.000000	4361.538462	4406.153846	4404.102564	3714.871795	4383.589744	4617.948718	4632.820513	4524.615385	4028.205128	4098.974359	4519.487179	4439.487179	4247.179487	3951.282051	1740.000000	1679.000000	17.653000	0.000000	0.000000	0.000000	0.000000
79.000000	4358.974359	4403.589744	4402.564103	3713.846154	4380.512821	4612.820513	4635.384615	4526.666667	4026.153846	4098.974359	4514.871795	4441.025641	4249.230769	3952.820513	1740.000000	1679.000000	17.669000	0.000000	0.000000	0.000000	0.000000
80.000000	4358.461538	4406.153846	4401.538462	3715.384615	4382.051282	4607.692308	4630.256410	4525.128205	4023.589744	4098.974359	4515.384615	4440.000000	4247.179487	3953.846154	1740.000000	1679.000000	17.669000	0.000000	0.000000	0.000000	0.000000
81.000000	4362.051282	4406.153846	4403.589744	3715.897436	4383.076923	4613.333333	4627.692308	4521.538462	4024.615385	4098.974359	4521.025641	4440.512821	4246.153846	3951.282051	1741.000000	1677.000000	17.684000	0.000000	0.000000	0.000000	0.000000
82.000000	4362.564103	4407.692308	4404.615385	3714.871795	4381.538462	4621.025641	4633.846154	4523.076923	4025.641026	4098.974359	4519.487179	4440.512821	4249.230769	3952.820513	1740.000000	1676.000000	17.684000	0.000000	0.000000	0.000000	0.000000
83.000000	4360.000000	4413.333333	4401.538462	3713.333333	4382.051282	4613.333333	4634.871795	4525.128205	4024.102564	4098.974359	4511.282051	4437.435897	4248.717949	3957.435897	1741.000000	1677.000000	17.700000	0.000000	0.000000	0.000000	0.000000
84.000000	4360.512821	4407.692308	4402.564103	3712.307692	4383.076923	4606.666667	4630.256410	4524.102564	4023.589744	4098.974359	4506.666667	4440.000000	4246.666667	3955.384615	1741.000000	1675.000000	17.700000	0.000000	0.000000	0.000000	0.000000
85.000000	4361.025641	4401.538462	4406.666667	3710.769231	4382.051282	4611.282051	4628.717949	4527.179487	4024.102564	4098.974359	4512.307692	4443.589744	4247.692308	3950.769231	1740.000000	1677.000000	17.716000	0.000000	0.000000	0.000000	0.000000
86.000000	4359.487179	4404.102564	4406.666667	3711.794872	4382.564103	4614.871795	4631.794872	4526.666667	4025.128205	4098.974359	4518.461538	4440.512821	4249.230769	3953.333333	1741.000000	1675.000000	17.716000	0.000000	0.000000	0.000000	0.000000
87.000000	4359.487179	4405.128205	4402.564103	3713.333333	4384.102564	4611.282051	4631.794872	4523.076923	4026.666667	4098.974359	4519.487179	4438.461538	4249.743590	3953.333333	1740.000000	1676.000000	17.731000	0.000000	0.000000	0.000000	0.000000
88.000000	4362.051282	4403.589744	4404.615385	3713.333333	4383.589744	4611.282051	4628.717949	4524.615385	4025.128205	4098.974359	4517.435897	4441.025641	4248.717949	3950.256410	1741.000000	1676.000000	17.731000	0.000000	0.000000	0.000000	0.000000
89.000000	4361.538462	4404.102564	4407.179487	3714.358974	4382.051282	4613.333333	4629.230769	4525.641026	4023.589744	4098.974359	4515.897436	4441.025641	4248.717949	3952.820513	1741.000000	1676.000000	17.747000	0.000000	0.000000	0.000000	0.000000
90.000000	4360.000000	4403.589744	4404.102564	3716.410256	4383.076923	4608.717949	4629.230769	4522.051282	4025.641026	4098.974359	4516.410256	4440.000000	4249.743590	3955.897436	1742.000000	1676.000000	17.747000	0.000000	0.000000	0.000000	0.000000
91.000000	4361.538462	4402.051282	4402.051282	3714.358974	4384.102564	4605.641026	4627.692308	4523.589744	4025.128205	4098.974359	4514.871795	4442.051282	4250.256410	3953.333333	1742.000000	1676.000000	17.762000	0.000000	0.000000	0.000000	0.000000
92.000000	4362.051282	4404.102564	4404.615385	3711.794872	4383.076923	4610.256410	4630.256410	4527.179487	4023.076923	4098.974359	4514.358974	4442.564103	4249.230769	3952.307692	1741.000000	1677.000000	17.762000	0.000000	0.000000	0.000000	0.000000
93.000000	4360.000000	4403.076923	4407.179487	3715.897436	4383.076923	4614.871795	4632.820513	4525.128205	4025.128205	4098.974359	4517.948718	4440.000000	4248.717949	3954.871795	1741.000000	1677.000000	17.778000	0.000000	0.000000	0.000000	0.000000
94.000000	4360.512821	4401.538462	4405.128205	3715.897436	4383.589744	4610.769231	4630.256410	4522.051282	4026.666667	4098.974359	4520.512821	4438.974359	4249.230769	3954.871795	1742.000000	1677.000000	17.778000	0.000000	0.000000	0.000000	0.000000
95.000000	4362.564103	4406.666667	4404.102564	3714.358974	4382.051282	4606.666667	4628.717949	4523.589744	4026.153846	4098.974359	4518.461538	4441.025641	4248.717949	3955.384615	1741.000000	1677.000000	17.794000	0.000000	0.000000	0.000000	0.000000
96.000000	4363.589744	4408.717949	4405.128205	3716.923077	4381.025641	4608.717949	4631.282051	4527.692308	4025.641026	4098.974359	4518.461538	4441.538462	4248.717949	3955.384615	1741.000000	1678.000000	17.794000	0.000000	0.000000	0.000000	0.000000
97.000000	4361.025641	4408.205128	4405.128205	3714.871795	4383.076923	4611.794872	4630.769231	4527.692308	4025.128205	4098.974359	4517.435897	4441.025641	4249.230769	3955.897436	1741.000000	1676.000000	17.809000	0.000000	0.000000	0.000000	0.000000
98.000000	4358.461538	4407.692308	4405.128205	3710.256410	4383.589744	4611.794872	4628.205128	4524.102564	4024.615385	4098.974359	4514.358974	4441.025641	4248.717949	3954.871795	1740.000000	1677.000000	17.809000	0.000000	0.000000	0.000000	0.000000
99.000000	4360.000000	4409.743590	4405.128205	3714.871795	4382.564103	4608.717949	4628.717949	4523.076923	4024.102564	4098.974359	4515.897436	4441.538462	4248.205128	3953.846154	1741.000000	1677.000000	17.825000	0.000000	0.000000	0.000000	0.000000
100.000000	4361.538462	4409.743590	4403.589744	3717.948718	4382.051282	4607.692308	4629.743590	4524.102564	4024.615385	4098.974359	4518.461538	4442.051282	4248.717949	3954.871795	1740.000000	1677.000000	17.825000	0.000000	0.000000	0.000000	0.000000
101.000000	4360.512821	4406.153846	4403.589744	3712.820513	4384.615385	4608.717949	4631.282051	4523.589744	4025.128205	4098.974359	4517.435897	4442.051282	4248.717949	3954.358974	1742.000000	1678.000000	17.841000	0.000000	0.000000	0.000000	0.000000
102.000000	4359.487179	4403.589744	4404.615385	3712.820513	4385.128205	4608.205128	4630.256410	4522.051282	4026.666667	4098.974359	4515.897436	4441.025641	4248.717949	3954.871795	1741.000000	1678.000000	17.841000	0.000000	0.000000	0.000000	0.000000
103.000000	4361.025641	4404.102564	4404.615385	3715.897436	4383.076923	4609.230769	4628.717949	4524.102564	4025.641026	4098.974359	4514.871795	4440.000000	4249.743590	3955.384615	1741.000000	1679.000000	17.856000	0.000000	0.000000	0.000000	0.000000
104.000000	4362.051282	4405.641026	4405.128205	3714.871795	4383.589744	4611.794872	4629.743590	4527.179487	4022.051282	4098.974359	4520.000000	4439.487179	4248.717949	3951.794872	1742.000000	1678.000000	17.856000	0.000000	0.000000	0.000000	0.000000
105.000000	4362.051282	4404.102564	4406.666667	3713.333333	4386.153846	4609.230769	4628.717949	4526.153846	4023.076923	4098.974359	4522.051282	4442.051282	4246.666667	3950.256410	1741.000000	1678.000000	17.872000	0.000000	0.000000	0.000000	0.000000
106.000000	4361.538462	4404.615385	4405.641026	3714.358974	4386.153846	4607.692308	4627.692308	4524.102564	4026.153846	4098.974359	4513.846154	4442.564103	4246.666667	3955.384615	1741.000000	1678.000000	17.872000	0.000000	0.000000	0.000000	0.000000
107.000000	4362.051282	4406.666667	4404.615385	3715.897436	4384.102564	4614.358974	4629.743590	4525.128205	4025.641026	4098.974359	4509.743590	4440.512821	4247.179487	3957.948718	1741.000000	1678.000000	17.893000	0.000000	0.000000	0.000000	0.000000
108.000000	4362.051282	4403.589744	4405.128205	3716.410256	4383.076923	4616.923077	4631.794872	4527.179487	4024.615385	4098.974359	4515.897436	4441.025641	4246.666667	3954.358974	1739.000000	1678.000000	17.893000	0.000000	0.000000	0.000000	0.000000
109.000000	4360.512821	4404.615385	4405.641026	3715.897436	4383.076923	4609.743590	4628.717949	4527.179487	4026.153846	4098.974359	4520.000000	4443.589744	4246.666667	3952.307692	1740.000000	1678.000000	17.893000	0.000000	0.000000	0.000000	0.000000
110.000000	4360.512821	4407.692308	4403.076923	3715.384615	4383.076923	4605.641026	4626.666667	4527.179487	4025.128205	4098.974359	4516.923077	4441.538462	4246.666667	3952.307692	1741.000000	1677.000000	17.908000	0.000000	0.000000	0.000000	0.000000
111.000000	4362.051282	4407.692308	4401.538462	3714.358974	4382.564103	4610.256410	4628.717949	4525.641026	4025.128205	4098.974359	4514.358974	4438.974359	4246.666667	3953.333333	1741.000000	1678.000000	17.908000	0.000000	0.000000	0.000000	0.000000
112.000000	4360.512821	4405.128205	4404.102564	3713.333333	4382.051282	4613.333333	4630.256410	4525.641026	4026.666667	4098.974359	4516.410256	4441.538462	4246.666667	3953.846154	1741.000000	1678.000000	17.924000	0.000000	0.000000	0.000000	0.000000
113.000000	4360.000000	4404.615385	4406.153846	3715.897436	4382.564103	4611.282051	4629.743590	4527.179487	4026.153846	4098.974359	4517.435897	4441.538462	4246.666667	3952.820513	1742.000000	1680.000000	17.924000	0.000000	0.000000	0.000000	0.000000
114.000000	4361.538462	4407.692308	4405.128205	3714.358974	4382.051282	4610.769231	4630.256410	4525.128205	4025.128205	4098.974359	4514.871795	4440.512821	4246.666667	3953.846154	1741.000000	1679.000000	17.939000	0.000000	0.000000	0.000000	0.000000
115.000000	4361.538462	4408.717949	4405.128205	3710.256410	4382.564103	4612.307692	4630.769231	4523.589744	4023.076923	4098.974359	4516.410256	4441.025641	4246.666667	3953.846154	1739.000000	1681.000000	17.939000	0.000000	0.000000	0.000000	0.000000
116.000000	4361.025641	4406.666667	4405.128205	3711.282051	4383.076923	4612.820513	4629.743590	4523.076923	4022.051282	4098.974359	4520.000000	4438.974359	4246.666667	3954.358974	1740.000000	1679.000000	17.955000	0.000000	0.000000	0.000000	0.000000
117.000000	4363.076923	4403.589744	4405.641026	3715.384615	4382.564103	4610.769231	4628.717949	4524.615385	4024.615385	4098.974359	4514.871795	4439.487179	4246.666667	3954.871795	1739.000000	1680.000000	17.955000	0.000000	0.000000	0.000000	0.000000
118.000000	4363.076923	4405.128205	4407.179487	3714.871795	4383.076923	4610.256410	4628.205128	4524.615385	4024.615385	4098.974359	4513.846154	4442.051282	4246.666667	3955.897436	1741.000000	1678.000000	17.971000	0.000000	0.000000	0.000000	0.000000
119.000000	4360.000000	4408.717949	4406.153846	3712.307692	4382.564103	4611.282051	4628.205128	4524.615385	4023.076923	4098.974359	4521.025641	4441.538462	4246.666667	3955.897436	1740.000000	1676.000000	17.971000	0.000000	0.000000	0.000000	0.000000
120.000000	4360.512821	4406.153846	4404.102564	3711.794872	4383.589744	4610.769231	4628.717949	4525.128205	4024.615385	4098.974359	4519.487179	4440.512821	4247.179487	3955.384615	1742.000000	1676.000000	17.986000	0.000000	0.000000	0.000000	0.000000
121.000000	4363.076923	4405.641026	4406.153846	3712.307692	4385.641026	4609.743590	4630.769231	4524.102564	4024.102564	4098.974359	4513.333333	4440.512821	4247.179487	3955.384615	1742.000000	1674.000000	17.986000	0.000000	0.000000	0.000000	0.000000
122.000000	4361.025641	4408.717949	4405.641026	3712.307692	4384.615385	4607.692308	4633.333333	4523.589744	4023.589744	4098.974359	4514.871795	4440.512821	4246.666667	3954.871795	1742.000000	1674.000000	18.002000	0.000000	0.000000	0.000000	0.000000
123.000000	4360.512821	4409.743590	4405.128205	3712.307692	4383.589744	4608.205128	4633.846154	4523.076923	4025.641026	4098.974359	4516.923077	4439.487179	4247.692308	3953.846154	1742.000000	1674.000000	18.002000	0.000000	0.000000	0.000000	0.000000
124.000000	4363.589744	4408.205128	4408.205128	3712.820513	4384.102564	4612.820513	4630.769231	4522.564103	4025.128205	4098.974359	4513.846154	4440.512821	4249.743590	3951.794872	1742.000000	1674.000000	18.018000	0.000000	0.000000	0.000000	0.000000
125.000000	4363.589744	4408.205128	4406.153846	3714.871795	4383.076923	4615.384615	4629.230769	4525.128205	4023.076923	4098.974359	4512.820513	4439.487179	4249.743590	3952.820513	1742.000000	1674.000000	18.018000	0.000000	0.000000	0.000000	0.000000
126.000000	4361.538462	4407.179487	4401.538462	3716.410256	4381.538462	4613.846154	4631.794872	4527.179487	4024.615385	4098.974359	4513.333333	4437.948718	4247.692308	3955.384615	1741.000000	1676.000000	18.033000	0.000000	0.000000	0.000000	0.000000
127.000000	4361.025641	4409.230769	4402.051282	3714.871795	4382.564103	4612.307692	4631.794872	4527.692308	4026.153846	4098.974359	4517.948718	4437.948718	4247.692308	3951.794872	1742.000000	1675.000000	18.033000	0.000000	0.000000	0.000000	0.000000
128.000000	4360.000000	4410.769231	4402.564103	3713.333333	4382.564103	4613.846154	4630.769231	4527.692308	4024.615385	4098.974359	4522.051282	4437.948718	4247.692308	3948.717949	1741.000000	1676.000000	18.049000	0.000000	0.000000	0.000000	0.000000
0.000000	4357.948718	4407.179487	4402.051282	3713.846154	4382.564103	4614.871795	4629.743590	4526.666667	4024.102564	4098.974359	4514.358974	4441.025641	4248.205128	3953.846154	1741.000000	1676.000000	18.049000	0.000000	0.000000	0.000000	0.000000
1.000000	4358.974359	4406.153846	4404.102564	3713.846154	4383.076923	4613.333333	4628.717949	4523.076923	4025.641026	4098.974359	4511.282051	4442.564103	4249.230769	3957.435897	1740.000000	1677.000000	18.064000	0.000000	0.000000	0.000000	0.000000
2.000000	4360.000000	4411.282051	4405.128205	3714.871795	4382.051282	4610.256410	4630.256410	4524.615385	4025.128205	4098.974359	4517.435897	4440.512821	4249.743590	3953.846154	1739.000000	1678.000000	18.064000	0.000000	0.000000	0.000000	0.000000
3.000000	4360.512821	4412.307692	4403.589744	3715.897436	4382.564103	4612.307692	4630.769231	4527.179487	4023.076923	4098.974359	4517.948718	4438.461538	4250.256410	3953.846154	1739.000000	1677.000000	18.080000	0.000000	0.000000	0.000000	0.000000
4.000000	4361.538462	4407.179487	4402.051282	3713.333333	4385.641026	4612.820513	4628.205128	4525.641026	4024.615385	4098.974359	4514.871795	4438.974359	4249.743590	3955.897436	1738.000000	1678.000000	18.080000	0.000000	0.000000	0.000000	0.000000
5.000000	4361.538462	4406.666667	4402.564103	3710.769231	4384.615385	4611.794872	4632.307692	4527.179487	4025.641026	4098.974359	4516.410256	4437.435897	4247.692308	3952.820513	1740.000000	1677.000000	18.096000	0.000000	0.000000	0.000000	0.000000
6.000000	4358.974359	4406.153846	4403.589744	3712.820513	4384.615385	4614.358974	4636.410256	4527.692308	4025.128205	4098.974359	4515.897436	4437.948718	4247.692308	3951.282051	1739.000000	1677.000000	18.096000	0.000000	0.000000	0.000000	0.000000
7.000000	4358.974359	4403.076923	4404.102564	3712.820513	4386.666667	4615.897436	4632.307692	4523.589744	4025.128205	4098.974359	4515.897436	4440.512821	4249.230769	3954.358974	1740.000000	1677.000000	18.111000	0.000000	0.000000	0.000000	0.000000
8.000000	4361.538462	4403.589744	4405.128205	3711.794872	4385.128205	4613.846154	4631.794872	4523.076923	4025.128205	4098.974359	4517.435897	4440.000000	4249.230769	3954.871795	1739.000000	1678.000000	18.111000	0.000000	0.000000	0.000000	0.000000
9.000000	4359.487179	4406.666667	4403.076923	3713.846154	4383.589744	4613.846154	4634.358974	4524.615385	4024.102564	4098.974359	4513.846154	4437.948718	4248.205128	3951.794872	1740.000000	1678.000000	18.127000	0.000000	0.000000	0.000000	0.000000
10.000000	4356.923077	4406.153846	4400.000000	3712.820513	4384.102564	4616.410256	4630.769231	4525.128205	4024.102564	4098.974359	4513.846154	4438.974359	4248.717949	3950.769231	1738.000000	1678.000000	18.127000	0.000000	0.000000	0.000000	0.000000
11.000000	4358.461538	4407.179487	4398.974359	3710.769231	4383.076923	4615.897436	4629.743590	4527.179487	4024.615385	4098.974359	4516.410256	4439.487179	4249.230769	3949.230769	1741.000000	1679.000000	18.143000	0.000000	0.000000	0.000000	0.000000
12.000000	4361.025641	4410.769231	4398.974359	3714.358974	4382.051282	4615.897436	4632.820513	4530.256410	4024.102564	4098.974359	4513.333333	4439.487179	4247.692308	3948.205128	1739.000000	1677.000000	18.143000	0.000000	0.000000	0.000000	0.000000
13.000000	4361.538462	4405.641026	4401.025641	3717.435897	4383.076923	4614.871795	4630.769231	4528.717949	4024.615385	4098.974359	4510.769231	4440.000000	4246.153846	3952.307692	1739.000000	1678.000000	18.158000	0.000000	0.000000	0.000000	0.000000
14.000000	4361.538462	4402.564103	4404.615385	3711.794872	4384.102564	4615.384615	4629.743590	4526.153846	4024.615385	4098.974359	4514.871795	4439.487179	4247.692308	3955.384615	1740.000000	1676.000000	18.158000	0.000000	0.000000	0.000000	0.000000
15.000000	4360.000000	4409.230769	4405.641026	3710.256410	4383.076923	4616.923077	4630.256410	4523.589744	4024.102564	4098.974359	4518.461538	4438.461538	4249.230769	3954.871795	1740.000000	1677.000000	18.174000	0.000000	0.000000	0.000000	0.000000
16.000000	4360.000000	4409.743590	4402.564103	3715.897436	4381.538462	4613.846154	4629.230769	4521.538462	4023.076923	4098.974359	4515.384615	4440.512821	4249.230769	3954.358974	1740.000000	1676.000000	18.174000	0.000000	0.000000	0.000000	0.000000
17.000000	4360.512821	4407.692308	4402.564103	3714.871795	4382.564103	4609.230769	4631.282051	4522.051282	4024.102564	4098.974359	4516.923077	4440.000000	4248.717949	3956.410256	1740.000000	1677.000000	18.189000	0.000000	0.000000	0.000000	0.000000
18.000000	4357.948718	4412.307692	4402.564103	3710.769231	4386.666667	4613.846154	4631.282051	4523.589744	4025.128205	4098.974359	4523.076923	4436.923077	4247.692308	3955.384615	1741.000000	1676.000000	18.189000	0.000000	0.000000	0.000000	0.000000
19.000000	4355.897436	4409.743590	4402.051282	3712.307692	4384.102564	4618.461538	4629.230769	4523.589744	4024.102564	4098.974359	4518.974359	4438.461538	4247.179487	3955.384615	1740.000000	1677.000000	18.205000	0.000000	0.000000	0.000000	0.000000
20.000000	4357.948718	4402.564103	4401.538462	3714.358974	4380.000000	4615.897436	4632.307692	4522.564103	4023.076923	4098.974359	4510.769231	4442.051282	4247.179487	3954.871795	1741.000000	1677.000000	18.205000	0.000000	0.000000	0.000000	0.000000
21.000000	4359.487179	4403.589744	4402.564103	3711.282051	4384.102564	4613.846154	4636.923077	4523.589744	4024.102564	4098.974359	4516.923077	4438.461538	4247.179487	3953.333333	1741.000000	1677.000000	18.221000	0.000000	0.000000	0.000000	0.000000
22.000000	4357.435897	4408.205128	4404.615385	3710.769231	4388.205128	4616.410256	4632.820513	4527.692308	4025.641026	4098.974359	4519.487179	4434.358974	4248.717949	3953.333333	1741.000000	1678.000000	18.221000	0.000000	0.000000	0.000000	0.000000
23.000000	4356.923077	4411.794872	4403.076923	3712.820513	4384.615385	4615.897436	4628.205128	4529.230769	4026.153846	4098.974359	4507.692308	4437.948718	4249.743590	3953.333333	1741.000000	1677.000000	18.236000	0.000000	0.000000	0.000000	0.000000
24.000000	4358.461538	4411.794872	4400.512821	3712.307692	4383.589744	4615.384615	4631.794872	4526.666667	4026.666667	4098.974359	4508.717949	4440.512821	4249.743590	3953.846154	1740.000000	1678.000000	18.236000	0.000000	0.000000	0.000000	0.000000
25.000000	4358.974359	4407.692308	4401.538462	3712.820513	4389.230769	4616.410256	4631.794872	4524.102564	4025.641026	4098.974359	4518.974359	4438.461538	4250.769231	3954.871795	1741.000000	1676.000000	18.252000	0.000000	0.000000	0.000000	0.000000
26.000000	4360.000000	4407.692308	4404.615385	3713.846154	4389.743590	4616.923077	4629.230769	4527.179487	4024.615385	4098.974359	4514.871795	4437.948718	4250.256410	3952.820513	1740.000000	1677.000000	18.252000	0.000000	0.000000	0.000000	0.000000
27.000000	4360.000000	4412.820513	4403.589744	3711.794872	4383.076923	4616.410256	4631.282051	4527.692308	4024.615385	4098.974359	4511.282051	4438.974359	4248.717949	3947.179487	1741.000000	1676.000000	18.268000	0.000000	0.000000	0.000000	0.000000
28.000000	4358.974359	4412.307692	4401.538462	3712.307692	4379.487179	4614.871795	4632.820513	4523.076923	4024.615385	4098.974359	4517.435897	4437.948718	4248.205128	3947.179487	1741.000000	1676.000000	18.268000	0.000000	0.000000	0.000000	0.000000
29.000000	4360.000000	4406.666667	4403.589744	3715.897436	4383.076923	4615.384615	4628.717949	4522.564103	4025.128205	4098.974359	4517.435897	4437.948718	4248.717949	3954.871795	1741.000000	1676.000000	18.283000	0.000000	0.000000	0.000000	0.000000
30.000000	4360.000000	4407.179487	4403.589744	3714.358974	4385.128205	4616.410256	4629.743590	4525.641026	4024.102564	4098.974359	4516.410256	4437.948718	4248.205128	3953.846154	1741.000000	1677.000000	18.283000	0.000000	0.000000	0.000000	0.000000
31.000000	4358.461538	4409.230769	4401.538462	3713.333333	4383.589744	4615.897436	4634.358974	4523.589744	4023.076923	4098.974359	4520.512821	4436.923077	4247.692308	3948.205128	1741.000000	1677.000000	18.299000	0.000000	0.000000	0.000000	0.000000
32.000000	4360.512821	4409.743590	4403.589744	3715.384615	4382.051282	4615.384615	4632.307692	4522.564103	4024.102564	4098.974359	4518.974359	4437.948718	4246.666667	3954.358974	1740.000000	1677.000000	18.299000	0.000000	0.000000	0.000000	0.000000
33.000000	4361.538462	4409.230769	4404.615385	3714.871795	4383.589744	4615.384615	4631.282051	4527.179487	4024.102564	4098.974359	4511.282051	4438.974359	4247.692308	3957.948718	1740.000000	1677.000000	18.314000	0.000000	0.000000	0.000000	0.000000
34.000000	4360.000000	4410.256410	4401.538462	3712.820513	4384.102564	4615.384615	4631.794872	4527.692308	4022.564103	4098.974359	4508.205128	4437.435897	4249.743590	3953.846154	1739.000000	1678.000000	18.314000	0.000000	0.000000	0.000000	0.000000
35.000000	4360.000000	4407.692308	4402.051282	3714.358974	4382.564103	4615.384615	4633.333333	4524.102564	4021.538462	4098.974359	4512.307692	4437.435897	4247.692308	3953.846154	1741.000000	1678.000000	18.330000	0.000000	0.000000	0.000000	0.000000
36.000000	4361.025641	4405.641026	4406.153846	3715.384615	4383.589744	4615.897436	4633.846154	4525.641026	4023.589744	4098.974359	4518.974359	4440.512821	4246.666667	3956.410256	1739.000000	1678.000000	18.330000	0.000000	0.000000	0.000000	0.000000
37.000000	4357.948718	4411.282051	4403.589744	3714.358974	4384.615385	4616.410256	4631.794872	4529.230769	4025.128205	4098.974359	4515.384615	4437.948718	4249.230769	3953.846154	1741.000000	1678.000000	18.346000	0.000000	0.000000	0.000000	0.000000
38.000000	4355.384615	4410.769231	4401.025641	3713.333333	4383.076923	4615.897436	4630.769231	4527.692308	4025.128205	4098.974359	4507.179487	4438.461538	4248.205128	3952.820513	1740.000000	1678.000000	18.346000	0.000000	0.000000	0.000000	0.000000
39.000000	4355.384615	4402.564103	4405.128205	3712.307692	4384.102564	4613.846154	4633.846154	4526.153846	4025.128205	4098.974359	4510.769231	4443.076923	4247.692308	3954.358974	1742.000000	1678.000000	18.361000	0.000000	0.000000	0.000000	0.000000
40.000000	4357.435897	4403.589744	4406.666667	3712.820513	4385.641026	4616.410256	4633.846154	4525.641026	4024.102564	4098.974359	4518.974359	4443.076923	4248.205128	3952.820513	1741.000000	1678.000000	18.361000	0.000000	0.000000	0.000000	0.000000
41.000000	4360.000000	4410.769231	4403.589744	3714.871795	4385.641026	4615.384615	4631.794872	4523.076923	4022.564103	4098.974359	4520.000000	4439.487179	4248.205128	3953.333333	1742.000000	1679.000000	18.393000	0.000000	0.000000	0.000000	0.000000
42.000000	4360.000000	4409.743590	4403.076923	3714.871795	4384.102564	4609.743590	4633.846154	4522.564103	4023.076923	4098.974359	4517.948718	4440.512821	4248.205128	3955.897436	1741.000000	1678.000000	18.393000	0.000000	0.000000	0.000000	0.000000
43.000000	4360.512821	4406.153846	4406.666667	3710.769231	4383.076923	4610.256410	4633.846154	4523.589744	4025.641026	4098.974359	4514.871795	4440.512821	4249.230769	3955.897436	1741.000000	1679.000000	18.393000	0.000000	0.000000	0.000000	0.000000
44.000000	4362.051282	4408.717949	4407.692308	3711.282051	4382.051282	4608.717949	4630.769231	4524.102564	4025.128205	4098.974359	4514.871795	4438.974359	4248.205128	3954.871795	1742.000000	1677.000000	18.393000	0.000000	0.000000	0.000000	0.000000
45.000000	4362.564103	4410.256410	4406.153846	3716.923077	4382.564103	4607.692308	4631.282051	4526.153846	4024.102564	4098.974359	4515.897436	4442.051282	4248.205128	3953.333333	1740.000000	1679.000000	18.408000	0.000000	0.000000	0.000000	0.000000
46.000000	4361.025641	4407.179487	4405.128205	3715.384615	4382.051282	4611.282051	4630.256410	4528.717949	4024.615385	4098.974359	4514.358974	4442.564103	4249.230769	3952.820513	1741.000000	1678.000000	18.408000	0.000000	0.000000	0.000000	0.000000
47.000000	4361.025641	4407.179487	4405.641026	3713.846154	4382.051282	4613.846154	4628.205128	4526.153846	4023.076923	4098.974359	4515.897436	4441.538462	4249.230769	3953.333333	1741.000000	1679.000000	18.424000	0.000000	0.000000	0.000000	0.000000
48.000000	4362.051282	4409.230769	4405.128205	3715.384615	4384.102564	4608.205128	4629.230769	4526.153846	4024.102564	4099.487179	4522.051282	4442.051282	4248.717949	3953.846154	1742.000000	1679.000000	18.424000	0.000000	0.000000	0.000000	0.000000
49.000000	4362.051282	4406.666667	4403.076923	3713.846154	4385.641026	4608.717949	4631.282051	4525.641026	4024.615385	4098.461538	4518.974359	4442.051282	4249.230769	3953.333333	1741.000000	1679.000000	18.439000	0.000000	0.000000	0.000000	0.000000
50.000000	4362.051282	4401.538462	4404.615385	3713.846154	4385.128205	4611.794872	4630.769231	4521.025641	4023.589744	4098.974359	4513.846154	4441.538462	4248.205128	3952.820513	1742.000000	1678.000000	18.439000	0.000000	0.000000	0.000000	0.000000
51.000000	4362.051282	4405.128205	4407.179487	3716.923077	4382.564103	4610.256410	4628.717949	4523.589744	4022.564103	4103.076923	4515.897436	4442.564103	4248.205128	3953.846154	1740.000000	1678.000000	18.455000	0.000000	0.000000	0.000000	0.000000
52.000000	4361.025641	4410.769231	4404.102564	3714.871795	4381.538462	4609.743590	4627.692308	4527.179487	4025.128205	4106.153846	4515.384615	4441.538462	4248.205128	3955.897436	1740.000000	1679.000000	18.455000	0.000000	0.000000	0.000000	0.000000
53.000000	4359.487179	4409.743590	4403.076923	3710.769231	4383.589744	4610.256410	4628.717949	4525.641026	4024.615385	4104.102564	4514.358974	4440.512821	4247.179487	3954.871795	1741.000000	1677.000000	18.471000	0.000000	0.000000	0.000000	0.000000
54.000000	4360.000000	4410.256410	4405.641026	3712.307692	4384.102564	4612.307692	4631.282051	4527.692308	4022.051282	4103.076923	4515.897436	4442.051282	4247.179487	3953.846154	1740.000000	1679.000000	18.471000	0.000000	0.000000	0.000000	0.000000
55.000000	4360.000000	4409.743590	4405.128205	3713.333333	4383.076923	4615.384615	4630.256410	4529.230769	4023.076923	4104.102564	4516.410256	4442.051282	4248.717949	3954.871795	1741.000000	1677.000000	18.486000	0.000000	0.000000	0.000000	0.000000
56.000000	4357.435897	4406.153846	4402.564103	3711.794872	4383.076923	4613.333333	4630.256410	4523.076923	4024.615385	4103.589744	4513.846154	4440.512821	4249.230769	3956.923077	1739.000000	1678.000000	18.486000	0.000000	0.000000	0.000000	0.000000
57.000000	4359.487179	4403.589744	4405.641026	3712.307692	4383.589744	4609.230769	4633.333333	4522.051282	4024.615385	4103.076923	4509.230769	4440.512821	4247.179487	3957.948718	1741.000000	1679.000000	18.502000	0.000000	0.000000	0.000000	0.000000
58.000000	4361.538462	4404.615385	4405.641026	3711.282051	4383.589744	4611.794872	4634.358974	4527.692308	4025.641026	4104.102564	4508.717949	4438.974359	4247.179487	3952.820513	1739.000000	1679.000000	18.502000	0.000000	0.000000	0.000000	0.000000
59.000000	4360.000000	4405.128205	4402.564103	3713.333333	4383.589744	4613.333333	4633.333333	4528.205128	4026.666667	4101.538462	4514.871795	4437.435897	4248.205128	3949.743590	1740.000000	1680.000000	18.518000	0.000000	0.000000	0.000000	0.000000
60.000000	4358.974359	4404.102564	4403.076923	3717.948718	4383.589744	4610.256410	4634.871795	4526.153846	4026.153846	4097.948718	4521.538462	4438.461538	4247.692308	3955.897436	1740.000000	1680.000000	18.518000	0.000000	0.000000	0.000000	0.000000
61.000000	4360.512821	4404.615385	4403.589744	3715.897436	4382.051282	4611.794872	4633.846154	4528.205128	4024.615385	4098.461538	4519.487179	4441.025641	4248.205128	3961.025641	1739.000000	1680.000000	18.533000	0.000000	0.000000	0.000000	0.000000
62.000000	4360.000000	4403.589744	4401.025641	3712.307692	4381.025641	4612.307692	4629.743590	4525.641026	4023.589744	4100.000000	4515.384615	4439.487179	4249.230769	3954.871795	1739.000000	1680.000000	18.533000	0.000000	0.000000	0.000000	0.000000
63.000000	4360.512821	4402.051282	4401.538462	3712.820513	4382.051282	4609.743590	4630.769231	4521.025641	4024.615385	4098.461538	4515.897436	4437.948718	4249.230769	3948.717949	1739.000000	1681.000000	18.549000	0.000000	0.000000	0.000000	0.000000
64.000000	4361.025641	4405.641026	4404.615385	3712.820513	4383.589744	4610.256410	4632.820513	4523.589744	4025.128205	4097.948718	4517.435897	4439.487179	4249.230769	3952.307692	1739.000000	1680.000000	18.549000	0.000000	0.000000	0.000000	0.000000
65.000000	4360.000000	4408.717949	4405.128205	3711.794872	4383.076923	4613.333333	4629.743590	4527.179487	4023.589744	4098.974359	4513.846154	4440.000000	4248.717949	3954.358974	1739.000000	1681.000000	18.564000	0.000000	0.000000	0.000000	0.000000
66.000000	4361.538462	4409.230769	4403.076923	3714.871795	4383.076923	4614.871795	4629.230769	4526.153846	4024.615385	4098.461538	4513.846154	4441.025641	4248.205128	3950.256410	1740.000000	1680.000000	18.564000	0.000000	0.000000	0.000000	0.000000
67.000000	4361.025641	4408.205128	4404.102564	3717.435897	4385.128205	4613.846154	4630.769231	4524.615385	4026.666667	4098.461538	4517.435897	4442.564103	4248.717949	3951.794872	1738.000000	1682.000000	18.580000	0.000000	0.000000	0.000000	0.000000
68.000000	4357.435897	4407.179487	4407.179487	3713.333333	4385.128205	4612.307692	4630.769231	4524.615385	4025.128205	4098.461538	4517.948718	4443.076923	4248.205128	3954.358974	1741.000000	1683.000000	18.580000	0.000000	0.000000	0.000000	0.000000
69.000000	4358.974359	4404.615385	4406.153846	3710.256410	4381.538462	4610.769231	4631.282051	4525.128205	4026.153846	4098.461538	4520.512821	4442.051282	4248.205128	3948.205128	1739.000000	1683.000000	18.596000	0.000000	0.000000	0.000000	0.000000
70.000000	4362.564103	4404.615385	4404.615385	3713.333333	4382.564103	4610.769231	4632.820513	4526.666667	4026.153846	4098.461538	4519.487179	4442.051282	4248.205128	3948.205128	1740.000000	1684.000000	18.596000	0.000000	0.000000	0.000000	0.000000
71.000000	4358.974359	4404.102564	4405.641026	3716.410256	4384.615385	4610.769231	4630.769231	4529.230769	4023.589744	4098.461538	4513.846154	4443.076923	4248.205128	3953.846154	1739.000000	1683.000000	18.611000	0.000000	0.000000	0.000000	0.000000
72.000000	4356.923077	4402.564103	4405.641026	3715.384615	4383.589744	4610.769231	4629.230769	4527.692308	4023.589744	4098.461538	4515.384615	4441.538462	4248.205128	3954.871795	1740.000000	1684.000000	18.611000	0.000000	0.000000	0.000000	0.000000
73.000000	4360.000000	4404.615385	4403.076923	3712.820513	4382.051282	4610.769231	4630.769231	4522.564103	4025.641026	4098.461538	4518.974359	4438.461538	4248.717949	3954.358974	1740.000000	1683.000000	18.627000	0.000000	0.000000	0.000000	0.000000
74.000000	4362.051282	4405.128205	4404.615385	3712.820513	4384.102564	4610.769231	4630.769231	4522.564103	4026.153846	4098.461538	4517.948718	4437.948718	4247.692308	3955.897436	1740.000000	1685.000000	18.627000	0.000000	0.000000	0.000000	0.000000
75.000000	4361.538462	4404.102564	4406.666667	3714.358974	4384.102564	4610.769231	4629.743590	4527.179487	4024.615385	4098.461538	4516.410256	4442.051282	4248.717949	3955.384615	1741.000000	1685.000000	18.643000	0.000000	0.000000	0.000000	0.000000
76.000000	4360.512821	4405.128205	4406.153846	3715.384615	4382.051282	4611.282051	4629.230769	4527.692308	4023.076923	4098.461538	4516.923077	4442.051282	4250.256410	3954.871795	1741.000000	1686.000000	18.643000	0.000000	0.000000	0.000000	0.000000
77.000000	4358.461538	4403.589744	4404.102564	3715.897436	4382.051282	4613.846154	4630.256410	4523.589744	4024.102564	4098.461538	4516.410256	4438.461538	4248.205128	3954.358974	1742.000000	1686.000000	18.658000	0.000000	0.000000	0.000000	0.000000
78.000000	4359.487179	4404.102564	4403.589744	3715.897436	4383.589744	4611.794872	4629.743590	4522.051282	4024.615385	4098.461538	4516.923077	4438.974359	4247.179487	3953.333333	1740.000000	1687.000000	18.658000	0.000000	0.000000	0.000000	0.000000
79.000000	4363.589744	4408.717949	4406.666667	3714.871795	4384.102564	4609.230769	4627.692308	4524.615385	4024.102564	4098.461538	4514.871795	4443.076923	4248.717949	3952.820513	1741.000000	1686.000000	18.674000	0.000000	0.000000	0.000000	0.000000
80.000000	4363.076923	4409.230769	4406.153846	3712.820513	4382.564103	4609.743590	4626.666667	4527.692308	4024.102564	4098.461538	4512.820513	4442.051282	4249.230769	3954.358974	1739.000000	1686.000000	18.674000	0.000000	0.000000	0.000000	0.000000
81.000000	4360.000000	4407.692308	4405.128205	3714.871795	4381.538462	4610.769231	4628.205128	4524.102564	4025.128205	4098.461538	4515.897436	4440.512821	4248.717949	3953.846154	1741.000000	1688.000000	18.689000	0.000000	0.000000	0.000000	0.000000
82.000000	4360.512821	4409.230769	4407.692308	3716.410256	4383.589744	4609.743590	4627.692308	4521.538462	4024.615385	4098.461538	4520.000000	4441.538462	4248.717949	3950.256410	1742.000000	1688.000000	18.689000	0.000000	0.000000	0.000000	0.000000
83.000000	4361.025641	4407.692308	4407.692308	3713.333333	4385.128205	4608.205128	4626.153846	4524.102564	4024.102564	4098.461538	4519.487179	4442.051282	4249.230769	3951.282051	1741.000000	1691.000000	18.705000	0.000000	0.000000	0.000000	0.000000
84.000000	4361.025641	4403.589744	4406.153846	3712.307692	4383.076923	4608.717949	4627.692308	4523.076923	4025.128205	4098.461538	4518.974359	4439.487179	4248.717949	3956.410256	1741.000000	1691.000000	18.705000	0.000000	0.000000	0.000000	0.000000
85.000000	4361.538462	4404.102564	4407.179487	3716.410256	4382.564103	4607.179487	4631.282051	4523.589744	4024.102564	4098.461538	4518.461538	4442.051282	4248.717949	3956.923077	1741.000000	1691.000000	18.721000	0.000000	0.000000	0.000000	0.000000
86.000000	4361.025641	4403.589744	4408.205128	3715.897436	4385.641026	4606.666667	4631.282051	4527.692308	4024.102564	4098.461538	4516.410256	4445.128205	4248.717949	3955.897436	1742.000000	1690.000000	18.721000	0.000000	0.000000	0.000000	0.000000
87.000000	4360.000000	4400.512821	4407.692308	3712.307692	4385.128205	4608.717949	4626.666667	4525.641026	4026.666667	4098.461538	4517.435897	4443.589744	4248.717949	3955.897436	1742.000000	1690.000000	18.736000	0.000000	0.000000	0.000000	0.000000
88.000000	4361.025641	4401.538462	4407.179487	3714.358974	4384.615385	4608.205128	4627.179487	4523.076923	4027.692308	4098.461538	4516.923077	4442.564103	4247.179487	3955.897436	1744.000000	1689.000000	18.736000	0.000000	0.000000	0.000000	0.000000
89.000000	4363.076923	4402.051282	4406.153846	3714.871795	4385.641026	4608.205128	4629.743590	4527.692308	4024.615385	4098.461538	4515.897436	4442.564103	4246.666667	3956.923077	1747.000000	1692.000000	18.752000	0.000000	0.000000	0.000000	0.000000
90.000000	4361.025641	4400.512821	4407.179487	3713.846154	4384.102564	4611.794872	4629.743590	4527.179487	4023.589744	4098.461538	4518.974359	4441.538462	4248.717949	3955.384615	1747.000000	1694.000000	18.752000	0.000000	0.000000	0.000000	0.000000
91.000000	4358.974359	4402.564103	4409.743590	3716.923077	4382.051282	4611.794872	4629.230769	4521.025641	4025.641026	4098.461538	4521.025641	4441.538462	4248.717949	3951.794872	1747.000000	1697.000000	18.768000	0.000000	0.000000	0.000000	0.000000
92.000000	4361.025641	4401.025641	4408.205128	3715.897436	4382.564103	4607.692308	4629.230769	4524.615385	4023.589744	4098.461538	4517.948718	4441.538462	4248.205128	3952.307692	1747.000000	1699.000000	18.768000	0.000000	0.000000	0.000000	0.000000
93.000000	4361.538462	4400.512821	4406.666667	3711.794872	4383.076923	4608.205128	4630.256410	4528.717949	4022.564103	4098.461538	4516.923077	4439.487179	4249.230769	3954.871795	1745.000000	1702.000000	18.783000	0.000000	0.000000	0.000000	0.000000
94.000000	4359.487179	4405.641026	4408.205128	3716.410256	4382.051282	4610.769231	4629.230769	4526.153846	4025.128205	4098.461538	4516.923077	4438.974359	4248.205128	3955.897436	1744.000000	1703.000000	18.783000	0.000000	0.000000	0.000000	0.000000
95.000000	4359.487179	4410.256410	4409.743590	3720.000000	4382.564103	4609.743590	4629.230769	4525.128205	4025.128205	4098.461538	4515.897436	4441.538462	4247.179487	3954.871795	1742.000000	1706.000000	18.799000	0.000000	0.000000	0.000000	0.000000
96.000000	4361.538462	4410.256410	4409.230769	3713.846154	4384.615385	4606.666667	4629.230769	4523.589744	4025.128205	4098.461538	4518.974359	4440.512821	4248.205128	3954.871795	1742.000000	1708.000000	18.799000	0.000000	0.000000	0.000000	0.000000
97.000000	4360.512821	4406.666667	4407.692308	3710.769231	4385.128205	4606.666667	4629.230769	4521.538462	4025.128205	4098.461538	4521.538462	4440.000000	4248.205128	3955.897436	1739.000000	1711.000000	18.814000	0.000000	0.000000	0.000000	0.000000
98.000000	4360.512821	4408.205128	4408.205128	3715.384615	4384.102564	4608.717949	4629.230769	4522.564103	4024.102564	4098.461538	4517.435897	4442.051282	4246.666667	3956.923077	1740.000000	1713.000000	18.814000	0.000000	0.000000	0.000000	0.000000
99.000000	4361.538462	4412.820513	4408.717949	3714.871795	4385.128205	4610.256410	4626.666667	4524.102564	4025.128205	4098.461538	4515.384615	4442.564103	4247.179487	3956.410256	1738.000000	1713.000000	18.830000	0.000000	0.000000	0.000000	0.000000
100.000000	4360.000000	4408.717949	4409.230769	3712.307692	4385.128205	4609.230769	4625.641026	4523.076923	4024.615385	4098.461538	4516.923077	4441.538462	4248.205128	3956.410256	1740.000000	1715.000000	18.830000	0.000000	0.000000	0.000000	0.000000
101.000000	4360.512821	4402.051282	4410.769231	3714.358974	4382.564103	4607.692308	4626.153846	4524.102564	4023.076923	4098.461538	4516.923077	4443.589744	4248.205128	3956.923077	1741.000000	1712.000000	18.846000	0.000000	0.000000	0.000000	0.000000
102.000000	4362.564103	4402.564103	4410.769231	3717.948718	4382.564103	4605.128205	4628.205128	4525.128205	4023.589744	4098.461538	4517.948718	4443.589744	4247.692308	3955.384615	1742.000000	1710.000000	18.846000	0.000000	0.000000	0.000000	0.000000
103.000000	4361.025641	4405.128205	4409.743590	3718.461538	4383.589744	4606.153846	4628.205128	4523.076923	4022.564103	4098.461538	4517.948718	4440.512821	4247.692308	3953.846154	1744.000000	1706.000000	18.861000	0.000000	0.000000	0.000000	0.000000
104.000000	4359.487179	4403.076923	4410.256410	3720.000000	4383.076923	4607.179487	4625.641026	4521.538462	4022.564103	4098.461538	4517.435897	4441.538462	4247.692308	3952.820513	1744.000000	1705.000000	18.861000	0.000000	0.000000	0.000000	0.000000
105.000000	4360.000000	4404.102564	4412.820513	3720.512821	4384.102564	4607.179487	4624.615385	4523.589744	4024.615385	4098.461538	4519.487179	4443.589744	4248.205128	3952.820513	1746.000000	1703.000000	18.877000	0.000000	0.000000	0.000000	0.000000
106.000000	4363.076923	4405.128205	4415.384615	3719.487179	4384.102564	4604.102564	4625.641026	4524.615385	4024.615385	4098.461538	4521.538462	4444.615385	4247.179487	3953.333333	1744.000000	1704.000000	18.877000	0.000000	0.000000	0.000000	0.000000
107.000000	4363.589744	4404.102564	4417.435897	3720.000000	4383.589744	4600.000000	4627.179487	4522.564103	4023.076923	4098.461538	4520.000000	4443.589744	4246.666667	3952.307692	1745.000000	1704.000000	18.893000	0.000000	0.000000	0.000000	0.000000
108.000000	4362.564103	4402.564103	4416.410256	3720.512821	4383.589744	4601.538462	4625.641026	4522.051282	4024.102564	4098.461538	4518.974359	4442.051282	4249.743590	3952.820513	1742.000000	1706.000000	18.893000	0.000000	0.000000	0.000000	0.000000
109.000000	4361.538462	4401.538462	4416.923077	3720.000000	4382.564103	4603.589744	4624.615385	4524.102564	4025.128205	4098.461538	4520.512821	4442.564103	4251.282051	3955.897436	1743.000000	1706.000000	18.908000	0.000000	0.000000	0.000000	0.000000
110.000000	4363.076923	4404.102564	4420.000000	3722.564103	4382.051282	4602.564103	4624.615385	4522.564103	4025.128205	4098.461538	4520.512821	4443.589744	4248.205128	3955.897436	1741.000000	1707.000000	18.908000	0.000000	0.000000	0.000000	0.000000
111.000000	4363.589744	4404.615385	4416.410256	3724.102564	4382.051282	4602.051282	4626.666667	4521.025641	4026.666667	4098.461538	4519.487179	4440.512821	4247.179487	3952.820513	1741.000000	1710.000000	18.924000	0.000000	0.000000	0.000000	0.000000
112.000000	4363.076923	4402.564103	4415.384615	3721.538462	4382.051282	4605.128205	4627.692308	4523.589744	4026.153846	4098.461538	4516.410256	4440.000000	4248.205128	3954.871795	1741.000000	1710.000000	18.924000	0.000000	0.000000	0.000000	0.000000
113.000000	4362.564103	4406.666667	4417.948718	3718.974359	4383.076923	4604.615385	4625.641026	4524.102564	4024.102564	4098.461538	4519.487179	4442.051282	4248.205128	3955.897436	1740.000000	1709.000000	18.939000	0.000000	0.000000	0.000000	0.000000
114.000000	4360.512821	4408.717949	4416.410256	3721.025641	4381.538462	4603.076923	4626.153846	4523.589744	4023.589744	4098.461538	4522.051282	4441.538462	4247.179487	3952.820513	1743.000000	1704.000000	18.939000	0.000000	0.000000	0.000000	0.000000
115.000000	4360.512821	4406.153846	4414.871795	3722.051282	4382.564103	4605.128205	4629.230769	4524.102564	4022.564103	4098.461538	4516.410256	4440.512821	4248.205128	3952.307692	1743.000000	1701.000000	18.955000	0.000000	0.000000	0.000000	0.000000
116.000000	4363.076923	4405.128205	4416.410256	3718.974359	4386.666667	4605.641026	4627.692308	4524.102564	4024.102564	4098.461538	4514.358974	4442.051282	4247.179487	3953.846154	1744.000000	1703.000000	18.955000	0.000000	0.000000	0.000000	0.000000
117.000000	4362.564103	4404.615385	4414.358974	3718.461538	4385.641026	4605.641026	4628.205128	4522.564103	4024.615385	4098.461538	4516.923077	4441.538462	4247.179487	3952.820513	1742.000000	1704.000000	18.971000	0.000000	0.000000	0.000000	0.000000
118.000000	4360.512821	4403.589744	4413.333333	3718.974359	4381.538462	4605.128205	4631.282051	4523.076923	4022.564103	4098.461538	4518.461538	4440.000000	4247.692308	3951.282051	1744.000000	1703.000000	18.971000	0.000000	0.000000	0.000000	0.000000
119.000000	4360.512821	4405.128205	4416.923077	3716.923077	4382.564103	4606.153846	4628.717949	4523.076923	4021.538462	4098.461538	4517.948718	4440.512821	4246.153846	3950.769231	1742.000000	1708.000000	18.986000	0.000000	0.000000	0.000000	0.000000
120.000000	4361.538462	4404.102564	4416.923077	3715.384615	4383.589744	4606.666667	4627.692308	4522.051282	4023.076923	4098.461538	4517.948718	4442.051282	4245.128205	3949.230769	1742.000000	1711.000000	18.986000	0.000000	0.000000	0.000000	0.000000
121.000000	4362.564103	4404.102564	4414.871795	3716.410256	4383.076923	4608.717949	4632.307692	4523.589744	4024.615385	4098.461538	4517.435897	4439.487179	4247.179487	3950.256410	1742.000000	1706.000000	19.002000	0.000000	0.000000	0.000000	0.000000
122.000000	4362.051282	4408.205128	4414.871795	3716.923077	4383.589744	4610.769231	4634.358974	4524.102564	4024.615385	4098.461538	4517.435897	4437.948718	4247.692308	3954.871795	1743.000000	1705.000000	19.002000	0.000000	0.000000	0.000000	0.000000
123.000000	4360.512821	4410.256410	4413.333333	3717.948718	4384.102564	4609.230769	4631.282051	4522.051282	4024.102564	4098.461538	4517.948718	4440.000000	4247.179487	3954.358974	1744.000000	1704.000000	19.018000	0.000000	0.000000	0.000000	0.000000
124.000000	4361.025641	4410.769231	4410.769231	3718.461538	4386.153846	4609.743590	4631.282051	4522.051282	4023.589744	4098.461538	4515.897436	4439.487179	4247.692308	3947.179487	1743.000000	1702.000000	19.018000	0.000000	0.000000	0.000000	0.000000
125.000000	4362.564103	4410.256410	4412.820513	3718.974359	4387.692308	4611.282051	4635.897436	4522.564103	4023.589744	4098.461538	4515.384615	4438.974359	4247.179487	3949.743590	1745.000000	1700.000000	19.033000	0.000000	0.000000	0.000000	0.000000
126.000000	4360.512821	4410.769231	4418.974359	3719.487179	4386.666667	4609.230769	4639.487179	4522.564103	4023.589744	4098.461538	4515.897436	4438.974359	4245.641026	3953.333333	1742.000000	1704.000000	19.033000	0.000000	0.000000	0.000000	0.000000
127.000000	4360.000000	4410.769231	4417.948718	3717.435897	4385.641026	4611.794872	4639.487179	4522.564103	4023.076923	4098.461538	4516.410256	4438.974359	4246.153846	3947.179487	1742.000000	1706.000000	19.049000	0.000000	0.000000	0.000000	0.000000
128.000000	4361.538462	4410.769231	4415.384615	3714.871795	4387.692308	4616.923077	4637.948718	4524.102564	4022.051282	4098.461538	4515.897436	4437.435897	4248.717949	3946.666667	1742.000000	1701.000000	19.049000	0.000000	0.000000	0.000000	0.000000
0.000000	4360.000000	4411.282051	4418.974359	3714.358974	4386.666667	4612.820513	4637.435897	4523.589744	4024.615385	4098.461538	4516.923077	4436.923077	4248.205128	3952.307692	1741.000000	1703.000000	19.064000	0.000000	0.000000	0.000000	0.000000
1.000000	4357.948718	4412.307692	4421.538462	3714.871795	4385.641026	4608.205128	4634.871795	4523.589744	4026.666667	4098.974359	4517.948718	4436.923077	4245.641026	3952.307692	1738.000000	1704.000000	19.064000	0.000000	0.000000	0.000000	0.000000
2.000000	4357.948718	4411.282051	4420.000000	3715.897436	4385.641026	4611.282051	4633.846154	4523.076923	4024.102564	4097.948718	4517.948718	4439.487179	4245.641026	3949.230769	1738.000000	1692.000000	19.080000	0.000000	0.000000	0.000000	0.000000
3.000000	4358.461538	4410.256410	4418.974359	3716.923077	4384.102564	4612.820513	4634.871795	4524.102564	4022.051282	4099.487179	4516.923077	4441.025641	4247.692308	3953.846154	1737.000000	1685.000000	19.080000	0.000000	0.000000	0.000000	0.000000
4.000000	4357.435897	4412.820513	4419.487179	3714.871795	4385.128205	4610.256410	4636.410256	4526.153846	4024.102564	4104.102564	4514.871795	4438.974359	4247.692308	3956.410256	1736.000000	1686.000000	19.096000	0.000000	0.000000	0.000000	0.000000
5.000000	4357.435897	4409.743590	4420.512821	3714.871795	4386.153846	4608.717949	4635.897436	4527.179487	4023.589744	4105.128205	4514.358974	4437.435897	4246.153846	3953.333333	1736.000000	1684.000000	19.096000	0.000000	0.000000	0.000000	0.000000
6.000000	4360.512821	4401.538462	4420.512821	3717.435897	4385.128205	4609.743590	4633.333333	4526.153846	4021.538462	4104.102564	4515.897436	4437.948718	4246.153846	3951.794872	1734.000000	1685.000000	19.111000	0.000000	0.000000	0.000000	0.000000
7.000000	4362.051282	4404.102564	4417.948718	3716.410256	4384.102564	4610.256410	4632.820513	4524.102564	4024.102564	4103.589744	4516.410256	4438.461538	4248.205128	3953.846154	1735.000000	1684.000000	19.111000	0.000000	0.000000	0.000000	0.000000
8.000000	4360.000000	4412.307692	4417.435897	3714.871795	4385.128205	4610.256410	4633.333333	4524.615385	4025.128205	4104.102564	4514.871795	4437.435897	4248.205128	3955.897436	1733.000000	1684.000000	19.127000	0.000000	0.000000	0.000000	0.000000
9.000000	4359.487179	4410.769231	4420.512821	3718.461538	4384.615385	4610.256410	4632.820513	4525.128205	4023.076923	4103.589744	4514.358974	4437.435897	4247.179487	3955.384615	1733.000000	1684.000000	19.127000	0.000000	0.000000	0.000000	0.000000
10.000000	4361.538462	4407.692308	4418.461538	3721.025641	4382.564103	4610.256410	4628.717949	4522.564103	4023.589744	4101.538462	4515.897436	4437.948718	4247.179487	3954.871795	1733.000000	1682.000000	19.143000	0.000000	0.000000	0.000000	0.000000
11.000000	4361.025641	4407.692308	4414.871795	3718.461538	4382.564103	4608.205128	4626.666667	4522.051282	4025.128205	4097.948718	4518.461538	4438.974359	4248.717949	3957.435897	1732.000000	1683.000000	19.143000	0.000000	0.000000	0.000000	0.000000
12.000000	4358.461538	4407.179487	4414.358974	3718.461538	4383.589744	4609.743590	4630.769231	4523.589744	4025.641026	4097.435897	4517.435897	4438.461538	4248.717949	3955.384615	1732.000000	1683.000000	19.158000	0.000000	0.000000	0.000000	0.000000
13.000000	4356.410256	4406.666667	4413.333333	3717.948718	4384.102564	4611.282051	4634.358974	4523.589744	4025.128205	4100.000000	4514.358974	4436.923077	4246.666667	3947.179487	1731.000000	1682.000000	19.158000	0.000000	0.000000	0.000000	0.000000
14.000000	4353.846154	4405.641026	4411.794872	3712.307692	4384.102564	4610.769231	4633.333333	4523.076923	4023.076923	4099.487179	4514.871795	4435.384615	4246.153846	3944.102564	1731.000000	1681.000000	19.174000	0.000000	0.000000	0.000000	0.000000
15.000000	4353.333333	4402.051282	4413.333333	3710.256410	4384.615385	4610.256410	4632.307692	4524.615385	4021.538462	4097.435897	4515.897436	4435.897436	4245.641026	3946.153846	1732.000000	1676.000000	19.174000	0.000000	0.000000	0.000000	0.000000
16.000000	4355.384615	4404.615385	4412.307692	3710.256410	4385.641026	4612.307692	4632.820513	4524.102564	4023.076923	4098.974359	4515.897436	4433.846154	4246.153846	3945.641026	1731.000000	1670.000000	19.189000	0.000000	0.000000	0.000000	0.000000
17.000000	4355.897436	4411.794872	4410.256410	3708.205128	4385.641026	4613.333333	4629.743590	4523.076923	4024.615385	4098.974359	4511.794872	4431.794872	4245.641026	3943.589744	1733.000000	1668.000000	19.189000	0.000000	0.000000	0.000000	0.000000
18.000000	4352.307692	4407.692308	4413.333333	3709.230769	4387.179487	4611.282051	4629.230769	4523.076923	4023.076923	4097.435897	4508.717949	4433.846154	4245.128205	3945.128205	1733.000000	1669.000000	19.205000	0.000000	0.000000	0.000000	0.000000
19.000000	4352.820513	4400.512821	4415.897436	3712.820513	4386.666667	4610.256410	4634.358974	4524.102564	4023.589744	4100.512821	4509.230769	4435.384615	4245.641026	3945.641026	1734.000000	1668.000000	19.205000	0.000000	0.000000	0.000000	0.000000
20.000000	4355.384615	4405.641026	4413.333333	3710.256410	4384.615385	4611.794872	4636.923077	4524.102564	4026.153846	4105.128205	4510.256410	4434.871795	4247.692308	3945.128205	1735.000000	1668.000000	19.221000	0.000000	0.000000	0.000000	0.000000
21.000000	4356.923077	4413.846154	4415.384615	3709.743590	4384.102564	4611.794872	4637.948718	4524.615385	4025.641026	4104.615385	4512.820513	4435.897436	4247.179487	3946.153846	1738.000000	1670.000000	19.221000	0.000000	0.000000	0.000000	0.000000
22.000000	4357.948718	4412.820513	4420.000000	3715.897436	4386.153846	4609.743590	4636.923077	4523.076923	4023.589744	4103.076923	4516.923077	4437.948718	4245.641026	3943.589744	1740.000000	1669.000000	19.236000	0.000000	0.000000	0.000000	0.000000
23.000000	4357.948718	4410.256410	4416.410256	3714.871795	4386.666667	4611.794872	4636.410256	4522.051282	4024.615385	4104.102564	4516.410256	4435.897436	4247.179487	3945.128205	1741.000000	1671.000000	19.236000	0.000000	0.000000	0.000000	0.000000
24.000000	4356.923077	4412.820513	4411.282051	3712.820513	4386.666667	4613.333333	4636.923077	4522.564103	4025.641026	4103.589744	4513.846154	4434.871795	4248.205128	3951.794872	1743.000000	1668.000000	19.252000	0.000000	0.000000	0.000000	0.000000
25.000000	4357.948718	4413.333333	4408.717949	3715.897436	4387.179487	4615.897436	4638.974359	4523.589744	4024.615385	4102.564103	4513.846154	4435.897436	4248.205128	3953.846154	1741.000000	1669.000000	19.252000	0.000000	0.000000	0.000000	0.000000
26.000000	4358.974359	4411.282051	4406.666667	3717.435897	4384.615385	4619.487179	4639.487179	4525.128205	4024.102564	4103.076923	4512.307692	4436.410256	4248.205128	3951.282051	1743.000000	1668.000000	19.268000	0.000000	0.000000	0.000000	0.000000
27.000000	4356.410256	4411.794872	4405.128205	3715.897436	4383.076923	4618.461538	4639.487179	4524.102564	4024.615385	4102.564103	4511.282051	4436.923077	4248.205128	3952.307692	1743.000000	1667.000000	19.268000	0.000000	0.000000	0.000000	0.000000
28.000000	4355.897436	4413.846154	4406.666667	3717.435897	4386.153846	4615.897436	4640.000000	4522.051282	4024.615385	4102.564103	4515.384615	4436.923077	4246.666667	3955.384615	1743.000000	1668.000000	19.283000	0.000000	0.000000	0.000000	0.000000
29.000000	4355.897436	4414.871795	4409.230769	3717.435897	4387.692308	4618.974359	4640.512821	4524.615385	4025.641026	4103.589744	4516.410256	4436.410256	4247.692308	3953.333333	1741.000000	1667.000000	19.283000	0.000000	0.000000	0.000000	0.000000
30.000000	4356.410256	4413.333333	4408.205128	3712.820513	4384.615385	4622.051282	4640.512821	4526.666667	4026.666667	4100.512821	4514.871795	4436.923077	4249.743590	3951.794872	1739.000000	1666.000000	19.299000	0.000000	0.000000	0.000000	0.000000
31.000000	4357.948718	4411.282051	4408.205128	3709.743590	4383.589744	4620.000000	4640.000000	4525.641026	4024.615385	4097.435897	4514.871795	4436.923077	4248.205128	3953.846154	1739.000000	1664.000000	19.299000	0.000000	0.000000	0.000000	0.000000
32.000000	4357.948718	4412.820513	4409.743590	3712.307692	4385.128205	4619.487179	4639.487179	4524.615385	4024.102564	4099.487179	4515.897436	4436.410256	4247.179487	3957.435897	1738.000000	1665.000000	19.314000	0.000000	0.000000	0.000000	0.000000
33.000000	4355.384615	4413.333333	4411.794872	3713.333333	4386.153846	4620.000000	4640.000000	4527.179487	4026.153846	4102.564103	4515.897436	4437.948718	4247.692308	3953.846154	1736.000000	1664.000000	19.314000	0.000000	0.000000	0.000000	0.000000
34.000000	4354.871795	4411.282051	4413.846154	3711.794872	4386.153846	4622.564103	4639.487179	4527.179487	4026.666667	4101.538462	4515.897436	4438.461538	4247.692308	3949.743590	1734.000000	1666.000000	19.330000	0.000000	0.000000	0.000000	0.000000
35.000000	4357.948718	4413.333333	4410.256410	3714.871795	4385.641026	4621.025641	4639.487179	4527.179487	4023.076923	4101.025641	4514.358974	4435.384615	4247.692308	3953.333333	1736.000000	1667.000000	19.330000	0.000000	0.000000	0.000000	0.000000
36.000000	4358.974359	4413.333333	4409.230769	3716.410256	4385.128205	4617.948718	4641.025641	4527.179487	4021.538462	4102.051282	4512.820513	4435.384615	4248.205128	3956.923077	1734.000000	1668.000000	19.346000	0.000000	0.000000	0.000000	0.000000
37.000000	4357.435897	4409.743590	4415.897436	3714.358974	4384.615385	4617.435897	4642.564103	4526.666667	4023.076923	4102.051282	4512.307692	4438.974359	4248.717949	3953.846154	1737.000000	1666.000000	19.346000	0.000000	0.000000	0.000000	0.000000
38.000000	4354.871795	4408.717949	4417.435897	3714.871795	4383.589744	4617.948718	4641.538462	4528.205128	4025.641026	4101.538462	4512.307692	4439.487179	4248.717949	3950.256410	1736.000000	1666.000000	19.361000	0.000000	0.000000	0.000000	0.000000
39.000000	4355.384615	4410.769231	4412.307692	3715.897436	4384.615385	4616.923077	4641.025641	4528.205128	4025.641026	4101.538462	4514.871795	4437.435897	4249.743590	3951.794872	1737.000000	1668.000000	19.361000	0.000000	0.000000	0.000000	0.000000
40.000000	4357.948718	4410.769231	4410.256410	3714.358974	4386.153846	4616.410256	4640.000000	4527.179487	4024.615385	4101.538462	4515.897436	4436.923077	4248.717949	3952.307692	1737.000000	1669.000000	19.377000	0.000000	0.000000	0.000000	0.000000
41.000000	4356.410256	4412.307692	4409.230769	3714.871795	4384.615385	4617.435897	4637.948718	4527.692308	4025.641026	4101.538462	4513.333333	4437.435897	4247.692308	3951.282051	1735.000000	1671.000000	19.377000	0.000000	0.000000	0.000000	0.000000
42.000000	4354.871795	4413.333333	4407.692308	3715.897436	4384.102564	4615.897436	4640.000000	4527.692308	4027.179487	4101.538462	4514.358974	4435.897436	4248.717949	3950.769231	1737.000000	1674.000000	19.393000	0.000000	0.000000	0.000000	0.000000
43.000000	4356.410256	4410.256410	4410.769231	3714.871795	4384.102564	4613.846154	4642.051282	4525.641026	4024.615385	4101.538462	4515.897436	4436.410256	4249.743590	3951.794872	1736.000000	1677.000000	19.393000	0.000000	0.000000	0.000000	0.000000
44.000000	4356.410256	4407.692308	4410.769231	3714.358974	4383.589744	4613.846154	4639.487179	4527.179487	4024.102564	4101.538462	4514.358974	4438.461538	4249.230769	3951.282051	1737.000000	1678.000000	19.408000	0.000000	0.000000	0.000000	0.000000
45.000000	4357.435897	4410.769231	4408.205128	3713.846154	4383.076923	4612.820513	4637.435897	4530.769231	4025.128205	4101.538462	4514.871795	4437.948718	4248.717949	3950.769231	1738.000000	1678.000000	19.408000	0.000000	0.000000	0.000000	0.000000
46.000000	4358.974359	4413.333333	4414.358974	3715.384615	4383.589744	4612.307692	4637.948718	4530.769231	4025.641026	4101.538462	4515.384615	4439.487179	4249.230769	3953.333333	1740.000000	1676.000000	19.424000	0.000000	0.000000	0.000000	0.000000
47.000000	4357.435897	4410.769231	4420.000000	3715.897436	4385.128205	4611.282051	4637.948718	4528.717949	4025.128205	4101.538462	4513.846154	4441.025641	4248.717949	3953.846154	1739.000000	1674.000000	19.424000	0.000000	0.000000	0.000000	0.000000
48.000000	4354.358974	4408.717949	4413.333333	3713.333333	4386.666667	4614.871795	4638.461538	4528.205128	4025.641026	4101.538462	4514.358974	4437.435897	4248.717949	3952.820513	1741.000000	1672.000000	19.439000	0.000000	0.000000	0.000000	0.000000
49.000000	4354.871795	4407.692308	4407.179487	3712.820513	4385.128205	4612.307692	4637.948718	4528.205128	4025.641026	4101.538462	4516.410256	4435.384615	4249.230769	3951.282051	1740.000000	1672.000000	19.439000	0.000000	0.000000	0.000000	0.000000
50.000000	4355.897436	4408.717949	4411.794872	3713.333333	4383.076923	4609.743590	4635.897436	4527.692308	4024.102564	4102.051282	4514.871795	4437.435897	4247.692308	3953.333333	1742.000000	1676.000000	19.455000	0.000000	0.000000	0.000000	0.000000
51.000000	4356.410256	4410.769231	4415.897436	3712.307692	4383.589744	4612.307692	4634.871795	4528.717949	4024.102564	4101.538462	4512.307692	4437.435897	4247.692308	3954.358974	1742.000000	1678.000000	19.455000	0.000000	0.000000	0.000000	0.000000
52.000000	4356.923077	4411.282051	4414.358974	3713.333333	4384.615385	4613.333333	4633.333333	4529.743590	4026.153846	4102.051282	4515.384615	4439.487179	4249.743590	3951.794872	1742.000000	1680.000000	19.471000	0.000000	0.000000	0.000000	0.000000
53.000000	4357.948718	4408.717949	4414.358974	3716.410256	4384.615385	4609.230769	4630.256410	4527.692308	4026.666667	4103.076923	4519.487179	4443.589744	4250.769231	3950.256410	1743.000000	1679.000000	19.471000	0.000000	0.000000	0.000000	0.000000
54.000000	4360.000000	4409.230769	4417.948718	3716.923077	4383.076923	4609.230769	4630.256410	4527.692308	4025.128205	4104.615385	4518.461538	4443.589744	4248.717949	3953.333333	1742.000000	1678.000000	19.486000	0.000000	0.000000	0.000000	0.000000
55.000000	4360.000000	4412.820513	4418.974359	3717.435897	4382.564103	4610.769231	4631.794872	4531.282051	4025.128205	4102.564103	4515.384615	4444.102564	4248.205128	3956.923077	1742.000000	1677.000000	19.486000	0.000000	0.000000	0.000000	0.000000
56.000000	4359.487179	4411.794872	4420.000000	3718.461538	4383.076923	4607.692308	4630.769231	4529.230769	4024.615385	4098.974359	4518.461538	4447.179487	4249.743590	3956.410256	1741.000000	1674.000000	19.502000	0.000000	0.000000	0.000000	0.000000
57.000000	4361.025641	4408.717949	4420.000000	3717.948718	4382.051282	4607.179487	4626.666667	4527.692308	4023.076923	4097.948718	4521.538462	4448.205128	4250.256410	3955.384615	1741.000000	1671.000000	19.502000	0.000000	0.000000	0.000000	0.000000
58.000000	4361.025641	4407.692308	4420.000000	3717.435897	4381.025641	4606.666667	4625.128205	4530.769231	4023.076923	4098.974359	4520.512821	4446.666667	4249.230769	3954.871795	1738.000000	1669.000000	19.518000	0.000000	0.000000	0.000000	0.000000
59.000000	4360.512821	4409.230769	4420.000000	3720.000000	4382.564103	4606.153846	4627.692308	4528.205128	4024.615385	4099.487179	4519.487179	4447.692308	4249.743590	3955.384615	1739.000000	1668.000000	19.518000	0.000000	0.000000	0.000000	0.000000
60.000000	4361.538462	4409.230769	4421.025641	3723.076923	4382.051282	4607.692308	4627.692308	4522.051282	4023.076923	4099.487179	4518.974359	4450.256410	4250.256410	3955.897436	1736.000000	1667.000000	19.538000	0.000000	0.000000	0.000000	0.000000
61.000000	4363.589744	4408.205128	4422.051282	3721.025641	4382.564103	4606.153846	4625.641026	4523.589744	4021.538462	4098.974359	4520.000000	4450.769231	4249.743590	3955.897436	1738.000000	1669.000000	19.538000	0.000000	0.000000	0.000000	0.000000
62.000000	4365.128205	4407.692308	4422.564103	3719.487179	4384.102564	4602.564103	4626.153846	4527.179487	4023.076923	4098.461538	4520.000000	4449.743590	4249.230769	3955.897436	1739.000000	1671.000000	19.554000	0.000000	0.000000	0.000000	0.000000
63.000000	4365.128205	4408.717949	4425.128205	3720.512821	4382.564103	4604.102564	4626.153846	4523.076923	4025.128205	4098.974359	4519.487179	4450.769231	4249.230769	3957.435897	1736.000000	1677.000000	19.554000	0.000000	0.000000	0.000000	0.000000
64.000000	4364.102564	4409.230769	4426.153846	3720.000000	4381.538462	4607.179487	4625.128205	4523.076923	4024.102564	4098.974359	4518.461538	4451.282051	4248.717949	3956.410256	1734.000000	1679.000000	19.569000	0.000000	0.000000	0.000000	0.000000
65.000000	4363.589744	4404.615385	4423.589744	3720.000000	4382.051282	4605.641026	4627.692308	4525.128205	4024.102564	4098.461538	4520.512821	4449.230769	4249.230769	3955.897436	1731.000000	1681.000000	19.569000	0.000000	0.000000	0.000000	0.000000
66.000000	4364.615385	4405.641026	4420.000000	3721.538462	4381.538462	4603.589744	4629.230769	4523.076923	4028.205128	4098.461538	4520.512821	4448.205128	4250.256410	3955.897436	1728.000000	1683.000000	19.585000	0.000000	0.000000	0.000000	0.000000
67.000000	4367.179487	4406.153846	4419.487179	3724.615385	4381.538462	4606.153846	4625.128205	4523.589744	4029.230769	4098.461538	4520.512821	4448.205128	4250.256410	3956.923077	1726.000000	1684.000000	19.585000	0.000000	0.000000	0.000000	0.000000
68.000000	4366.666667	4402.564103	4417.435897	3727.179487	4382.564103	4609.743590	4624.102564	4527.179487	4024.615385	4098.461538	4522.051282	4448.717949	4249.230769	3957.435897	1724.000000	1683.000000	19.600000	0.000000	0.000000	0.000000	0.000000
69.000000	4363.589744	4403.589744	4417.435897	3725.641026	4382.564103	4608.717949	4626.666667	4526.153846	4023.589744	4098.461538	4518.974359	4448.205128	4248.717949	3955.897436	1723.000000	1680.000000	19.600000	0.000000	0.000000	0.000000	0.000000
70.000000	4363.076923	4406.153846	4420.512821	3722.051282	4381.025641	4606.666667	4627.692308	4525.128205	4026.153846	4098.461538	4517.435897	4448.205128	4249.743590	3955.384615	1727.000000	1679.000000	19.616000	0.000000	0.000000	0.000000	0.000000
71.000000	4363.076923	4405.641026	4418.974359	3723.076923	4382.051282	4606.666667	4628.205128	4526.666667	4025.128205	4098.461538	4517.435897	4448.205128	4250.769231	3955.384615	1727.000000	1679.000000	19.616000	0.000000	0.000000	0.000000	0.000000
72.000000	4361.538462	4406.666667	4418.461538	3721.538462	4383.589744	4605.641026	4630.256410	4523.589744	4023.076923	4098.461538	4516.410256	4447.179487	4249.743590	3955.897436	1728.000000	1677.000000	19.632000	0.000000	0.000000	0.000000	0.000000
73.000000	4361.538462	4406.666667	4420.512821	3716.923077	4383.589744	4606.153846	4629.743590	4523.589744	4025.641026	4098.461538	4513.846154	4446.666667	4247.692308	3954.871795	1727.000000	1678.000000	19.632000	0.000000	0.000000	0.000000	0.000000
74.000000	4360.000000	4406.153846	4420.512821	3715.897436	4383.076923	4608.717949	4626.153846	4527.179487	4028.205128	4098.461538	4514.871795	4446.666667	4247.179487	3951.282051	1730.000000	1678.000000	19.647000	0.000000	0.000000	0.000000	0.000000
75.000000	4357.948718	4408.717949	4421.025641	3717.435897	4384.102564	4608.717949	4627.692308	4526.153846	4027.179487	4098.461538	4516.923077	4448.205128	4246.153846	3947.692308	1732.000000	1678.000000	19.647000	0.000000	0.000000	0.000000	0.000000
76.000000	4358.974359	4405.641026	4420.512821	3717.435897	4384.615385	4610.256410	4634.358974	4525.641026	4025.128205	4098.461538	4515.384615	4447.179487	4246.153846	3946.153846	1737.000000	1679.000000	19.663000	0.000000	0.000000	0.000000	0.000000
77.000000	4356.923077	4400.512821	4415.897436	3716.923077	4383.076923	4611.282051	4637.948718	4527.179487	4024.615385	4098.461538	4516.410256	4446.153846	4247.179487	3949.230769	1740.000000	1683.000000	19.663000	0.000000	0.000000	0.000000	0.000000
78.000000	4353.333333	4407.179487	4412.307692	3716.410256	4383.076923	4610.256410	4634.871795	4526.666667	4025.128205	4098.461538	4516.923077	4443.589744	4247.179487	3949.743590	1745.000000	1686.000000	19.679000	0.000000	0.000000	0.000000	0.000000
79.000000	4355.384615	4412.307692	4411.282051	3716.410256	4384.102564	4610.769231	4631.282051	4525.641026	4025.128205	4098.461538	4517.948718	4440.512821	4247.179487	3950.256410	1745.000000	1688.000000	19.679000	0.000000	0.000000	0.000000	0.000000
80.000000	4356.923077	4405.128205	4406.666667	3719.487179	4383.589744	4611.282051	4631.282051	4524.615385	4024.615385	4098.461538	4516.410256	4441.538462	4248.717949	3951.794872	1747.000000	1691.000000	19.694000	0.000000	0.000000	0.000000	0.000000
81.000000	4355.384615	4402.051282	4404.102564	3720.512821	4383.076923	4609.743590	4631.282051	4523.076923	4025.128205	4098.461538	4515.384615	4441.538462	4249.230769	3953.846154	1748.000000	1690.000000	19.694000	0.000000	0.000000	0.000000	0.000000
82.000000	4357.435897	4406.153846	4405.128205	3718.461538	4384.102564	4609.743590	4634.871795	4523.076923	4026.153846	4098.461538	4517.948718	4441.025641	4248.717949	3953.846154	1745.000000	1690.000000	19.710000	0.000000	0.000000	0.000000	0.000000
83.000000	4358.974359	4407.179487	4409.230769	3720.000000	4384.615385	4611.282051	4635.897436	4524.102564	4025.128205	4098.461538	4519.487179	4439.487179	4247.179487	3947.179487	1745.000000	1687.000000	19.710000	0.000000	0.000000	0.000000	0.000000
84.000000	4357.948718	4404.615385	4412.820513	3723.076923	4384.102564	4610.256410	4631.794872	4522.564103	4024.615385	4098.974359	4516.923077	4440.512821	4246.666667	3942.564103	1743.000000	1683.000000	19.725000	0.000000	0.000000	0.000000	0.000000
85.000000	4356.923077	4403.589744	4411.282051	3722.051282	4384.102564	4612.307692	4630.256410	4523.589744	4025.641026	4098.461538	4513.846154	4445.641026	4247.179487	3947.179487	1745.000000	1680.000000	19.725000	0.000000	0.000000	0.000000	0.000000
86.000000	4354.358974	4401.538462	4413.333333	3720.512821	4383.589744	4613.846154	4632.820513	4525.128205	4024.102564	4098.461538	4517.948718	4449.743590	4247.692308	3956.410256	1747.000000	1680.000000	19.741000	0.000000	0.000000	0.000000	0.000000
87.000000	4351.794872	4400.000000	4418.974359	3723.589744	4384.615385	4612.307692	4635.384615	4523.589744	4023.076923	4098.461538	4521.538462	4447.692308	4247.179487	3957.948718	1749.000000	1682.000000	19.741000	0.000000	0.000000	0.000000	0.000000
88.000000	4350.769231	4399.487179	4419.487179	3725.128205	4384.615385	4612.307692	4635.897436	4524.615385	4025.128205	4098.461538	4519.487179	4445.128205	4246.666667	3954.358974	1749.000000	1683.000000	19.757000	0.000000	0.000000	0.000000	0.000000
89.000000	4348.717949	4396.923077	4415.384615	3722.564103	4383.076923	4613.846154	4635.384615	4526.153846	4024.615385	4098.461538	4518.461538	4445.641026	4246.666667	3956.410256	1752.000000	1686.000000	19.757000	0.000000	0.000000	0.000000	0.000000
90.000000	4346.153846	4397.948718	4418.461538	3724.615385	4382.564103	4611.794872	4633.846154	4525.641026	4023.589744	4098.461538	4520.512821	4446.666667	4248.205128	3955.384615	1753.000000	1687.000000	19.772000	0.000000	0.000000	0.000000	0.000000
91.000000	4344.102564	4402.051282	4419.487179	3729.230769	4383.589744	4611.282051	4632.307692	4525.128205	4027.179487	4098.461538	4520.000000	4448.205128	4248.717949	3952.307692	1753.000000	1689.000000	19.772000	0.000000	0.000000	0.000000	0.000000
92.000000	4344.615385	4400.512821	4414.358974	3729.230769	4383.589744	4612.307692	4631.282051	4525.641026	4027.179487	4098.461538	4518.974359	4449.230769	4248.717949	3953.333333	1753.000000	1687.000000	19.788000	0.000000	0.000000	0.000000	0.000000
93.000000	4351.282051	4402.051282	4412.307692	3724.615385	4382.051282	4610.256410	4631.282051	4526.666667	4023.076923	4098.461538	4521.025641	4449.230769	4247.692308	3952.820513	1751.000000	1688.000000	19.788000	0.000000	0.000000	0.000000	0.000000
94.000000	4356.923077	4408.205128	4415.384615	3723.076923	4382.051282	4607.692308	4633.333333	4526.666667	4023.076923	4098.461538	4520.512821	4450.256410	4248.717949	3951.794872	1752.000000	1688.000000	19.804000	0.000000	0.000000	0.000000	0.000000
95.000000	4359.487179	4410.256410	4414.871795	3723.076923	4383.076923	4609.230769	4633.846154	4525.641026	4025.641026	4098.461538	4519.487179	4446.666667	4249.743590	3954.871795	1748.000000	1685.000000	19.804000	0.000000	0.000000	0.000000	0.000000
96.000000	4362.051282	4408.205128	4412.307692	3721.538462	4383.589744	4607.692308	4631.794872	4521.538462	4024.615385	4098.461538	4520.512821	4444.102564	4249.743590	3956.923077	1749.000000	1681.000000	19.819000	0.000000	0.000000	0.000000	0.000000
97.000000	4363.076923	4408.717949	4416.923077	3718.461538	4384.102564	4607.179487	4629.230769	4523.589744	4025.641026	4098.461538	4522.051282	4445.641026	4249.743590	3955.897436	1748.000000	1681.000000	19.819000	0.000000	0.000000	0.000000	0.000000
98.000000	4361.025641	4409.743590	4420.000000	3715.897436	4384.102564	4608.717949	4628.717949	4526.666667	4028.717949	4098.461538	4520.000000	4447.692308	4250.256410	3957.948718	1748.000000	1682.000000	19.835000	0.000000	0.000000	0.000000	0.000000
99.000000	4362.051282	4410.769231	4419.487179	3717.948718	4384.102564	4606.666667	4630.769231	4527.179487	4025.641026	4098.461538	4517.948718	4448.717949	4248.717949	3958.974359	1749.000000	1684.000000	19.835000	0.000000	0.000000	0.000000	0.000000
100.000000	4363.589744	4409.230769	4421.025641	3720.000000	4383.076923	4605.128205	4633.333333	4529.230769	4023.589744	4097.948718	4520.000000	4450.769231	4248.717949	3955.897436	1750.000000	1684.000000	19.850000	0.000000	0.000000	0.000000	0.000000
101.000000	4360.512821	4409.230769	4423.076923	3716.923077	4384.102564	4604.102564	4632.307692	4527.179487	4027.179487	4098.461538	4521.025641	4452.307692	4251.794872	3955.384615	1749.000000	1685.000000	19.850000	0.000000	0.000000	0.000000	0.000000
102.000000	4358.974359	4412.307692	4422.051282	3716.923077	4384.615385	4601.025641	4630.256410	4521.025641	4028.717949	4098.461538	4520.000000	4451.282051	4251.282051	3956.923077	1749.000000	1684.000000	19.866000	0.000000	0.000000	0.000000	0.000000
103.000000	4360.000000	4410.769231	4420.000000	3720.512821	4383.589744	4601.025641	4630.769231	4523.076923	4024.615385	4097.435897	4521.025641	4449.743590	4248.717949	3958.974359	1748.000000	1682.000000	19.866000	0.000000	0.000000	0.000000	0.000000
104.000000	4360.512821	4408.205128	4417.948718	3722.564103	4384.102564	4606.153846	4632.820513	4528.205128	4024.615385	4100.000000	4520.512821	4447.179487	4248.717949	3958.461538	1744.000000	1684.000000	19.882000	0.000000	0.000000	0.000000	0.000000
105.000000	4362.051282	4407.692308	4416.923077	3722.564103	4384.615385	4605.641026	4633.333333	4526.666667	4028.205128	4104.102564	4520.000000	4445.641026	4249.230769	3955.897436	1743.000000	1687.000000	19.882000	0.000000	0.000000	0.000000	0.000000
106.000000	4364.615385	4407.179487	4416.923077	3723.076923	4383.076923	4603.076923	4632.307692	4526.666667	4027.692308	4104.615385	4521.025641	4447.692308	4248.717949	3956.923077	1743.000000	1689.000000	19.897000	0.000000	0.000000	0.000000	0.000000
107.000000	4364.615385	4406.153846	4415.897436	3722.564103	4381.025641	4605.128205	4632.307692	4528.717949	4025.128205	4103.589744	4521.025641	4450.256410	4248.717949	3958.461538	1741.000000	1692.000000	19.897000	0.000000	0.000000	0.000000	0.000000
108.000000	4364.615385	4403.589744	4412.307692	3721.538462	4382.564103	4605.128205	4632.307692	4528.205128	4027.692308	4104.102564	4519.487179	4450.256410	4249.230769	3957.435897	1738.000000	1691.000000	19.913000	0.000000	0.000000	0.000000	0.000000
109.000000	4366.153846	4401.538462	4411.282051	3722.051282	4383.076923	4602.051282	4629.743590	4527.179487	4028.717949	4103.589744	4519.487179	4450.769231	4249.230769	3955.384615	1736.000000	1690.000000	19.913000	0.000000	0.000000	0.000000	0.000000
110.000000	4367.179487	4401.025641	4414.358974	3721.538462	4382.051282	4601.025641	4629.743590	4528.205128	4024.615385	4102.564103	4521.538462	4452.307692	4248.717949	3955.897436	1736.000000	1686.000000	19.929000	0.000000	0.000000	0.000000	0.000000
111.000000	4364.615385	4401.025641	4418.461538	3717.948718	4382.051282	4602.564103	4632.820513	4527.692308	4023.076923	4103.076923	4520.512821	4450.769231	4249.230769	3957.948718	1737.000000	1684.000000	19.929000	0.000000	0.000000	0.000000	0.000000
112.000000	4361.025641	4399.487179	4417.435897	3715.897436	4382.564103	4604.102564	4633.846154	4524.615385	4026.153846	4103.076923	4518.974359	4447.179487	4248.205128	3958.461538	1738.000000	1683.000000	19.944000	0.000000	0.000000	0.000000	0.000000
113.000000	4360.512821	4403.589744	4413.846154	3717.435897	4383.076923	4604.615385	4632.820513	4523.589744	4027.692308	4103.076923	4521.025641	4445.641026	4248.717949	3958.461538	1739.000000	1683.000000	19.944000	0.000000	0.000000	0.000000	0.000000
114.000000	4361.538462	4410.769231	4409.743590	3715.384615	4382.051282	4605.128205	4633.846154	4522.564103	4026.666667	4102.564103	4517.435897	4443.589744	4250.256410	3960.000000	1743.000000	1680.000000	19.960000	0.000000	0.000000	0.000000	0.000000
115.000000	4360.512821	4414.358974	4405.641026	3712.820513	4382.564103	4604.102564	4635.384615	4522.564103	4025.641026	4102.564103	4514.871795	4440.000000	4248.717949	3957.948718	1740.000000	1681.000000	19.960000	0.000000	0.000000	0.000000	0.000000
116.000000	4358.461538	4415.384615	4401.538462	3714.871795	4383.076923	4606.153846	4632.820513	4524.102564	4024.615385	4104.102564	4517.435897	4437.435897	4253.333333	3955.384615	1743.000000	1682.000000	19.975000	0.000000	0.000000	0.000000	0.000000
117.000000	4357.948718	4416.410256	4399.487179	3713.846154	4381.025641	4609.230769	4629.230769	4527.179487	4026.153846	4101.538462	4517.948718	4436.923077	4260.512821	3956.923077	1741.000000	1683.000000	19.975000	0.000000	0.000000	0.000000	0.000000
118.000000	4355.897436	4416.410256	4401.025641	3712.820513	4379.487179	4610.256410	4628.717949	4524.615385	4028.205128	4097.948718	4516.923077	4438.461538	4261.025641	3961.025641	1739.000000	1685.000000	19.991000	0.000000	0.000000	0.000000	0.000000
119.000000	4354.871795	4421.025641	4401.025641	3717.435897	4381.025641	4608.717949	4630.769231	4521.025641	4026.666667	4097.435897	4518.974359	4438.461538	4260.000000	3962.051282	1735.000000	1686.000000	19.991000	0.000000	0.000000	0.000000	0.000000
120.000000	4358.974359	4426.666667	4400.512821	3716.410256	4382.564103	4607.692308	4628.205128	4522.564103	4023.589744	4098.461538	4521.025641	4436.923077	4263.076923	3960.512821	1733.000000	1688.000000	20.007000	0.000000	0.000000	0.000000	0.000000
121.000000	4361.538462	4427.179487	4401.025641	3712.820513	4381.025641	4608.717949	4625.641026	4524.615385	4024.615385	4098.461538	4520.000000	4436.923077	4264.615385	3960.000000	1731.000000	1691.000000	20.007000	0.000000	0.000000	0.000000	0.000000
122.000000	4360.512821	4425.128205	4403.589744	3716.923077	4381.025641	4609.230769	4627.692308	4524.102564	4026.666667	4097.948718	4519.487179	4438.461538	4264.615385	3961.538462	1729.000000	1693.000000	20.022000	0.000000	0.000000	0.000000	0.000000
123.000000	4361.025641	4425.128205	4406.153846	3717.948718	4383.076923	4609.230769	4627.692308	4523.589744	4026.666667	4096.923077	4520.000000	4436.923077	4265.128205	3962.051282	1729.000000	1692.000000	20.022000	0.000000	0.000000	0.000000	0.000000
124.000000	4363.076923	4427.692308	4405.128205	3713.846154	4383.076923	4607.692308	4625.128205	4524.615385	4025.128205	4097.435897	4520.000000	4435.384615	4263.076923	3961.538462	1728.000000	1690.000000	20.038000	0.000000	0.000000	0.000000	0.000000
125.000000	4361.025641	4424.615385	4408.205128	3712.820513	4381.538462	4608.717949	4627.692308	4521.025641	4024.102564	4098.461538	4515.897436	4436.410256	4266.153846	3959.487179	1729.000000	1690.000000	20.038000	0.000000	0.000000	0.000000	0.000000
126.000000	4354.358974	4415.384615	4417.435897	3712.307692	4381.025641	4612.820513	4631.282051	4519.487179	4024.102564	4097.948718	4514.358974	4437.435897	4266.153846	3956.923077	1731.000000	1687.000000	20.054000	0.000000	0.000000	0.000000	0.000000
127.000000	4343.589744	4409.743590	4421.025641	3710.769231	4383.076923	4614.871795	4630.256410	4528.205128	4024.102564	4100.000000	4515.897436	4438.461538	4254.358974	3951.794872	1733.000000	1688.000000	20.054000	0.000000	0.000000	0.000000	0.000000
128.000000	4329.743590	4409.230769	4422.564103	3711.794872	4384.615385	4614.358974	4631.794872	4531.794872	4025.641026	4104.102564	4515.384615	4441.025641	4249.230769	3944.615385	1734.000000	1692.000000	20.069000	0.000000	0.000000	0.000000	0.000000
0.000000	4324.102564	4403.076923	4426.666667	3714.358974	4385.641026	4612.820513	4636.923077	4526.666667	4026.666667	4105.128205	4514.871795	4444.102564	4252.307692	3942.051282	1734.000000	1693.000000	20.069000	0.000000	0.000000	0.000000	0.000000
1.000000	4327.179487	4396.410256	4426.666667	3714.871795	4386.153846	4612.307692	4636.410256	4524.102564	4025.641026	4103.589744	4519.487179	4447.692308	4250.769231	3941.538462	1735.000000	1695.000000	20.085000	0.000000	0.000000	0.000000	0.000000
2.000000	4329.230769	4396.410256	4422.564103	3715.384615	4385.128205	4612.820513	4634.871795	4528.717949	4026.666667	4103.589744	4518.461538	4447.179487	4247.179487	3940.000000	1735.000000	1697.000000	20.085000	0.000000	0.000000	0.000000	0.000000
3.000000	4329.743590	4395.384615	4421.025641	3715.897436	4383.589744	4617.435897	4638.461538	4529.743590	4026.666667	4103.589744	4514.358974	4441.025641	4246.666667	3940.512821	1735.000000	1698.000000	20.100000	0.000000	0.000000	0.000000	0.000000
4.000000	4335.384615	4397.948718	4417.948718	3714.871795	4384.615385	4615.897436	4637.948718	4528.717949	4025.128205	4104.102564	4514.871795	4440.000000	4247.179487	3940.512821	1737.000000	1697.000000	20.100000	0.000000	0.000000	0.000000	0.000000
5.000000	4342.564103	4401.538462	4415.384615	3711.794872	4387.692308	4610.769231	4630.769231	4526.666667	4026.153846	4105.641026	4515.897436	4441.025641	4246.153846	3940.000000	1738.000000	1699.000000	20.116000	0.000000	0.000000	0.000000	0.000000
6.000000	4345.128205	4402.564103	4414.871795	3708.717949	4389.743590	4613.333333	4632.307692	4527.179487	4027.179487	4105.641026	4515.384615	4437.948718	4247.179487	3944.102564	1742.000000	1699.000000	20.116000	0.000000	0.000000	0.000000	0.000000
7.000000	4347.179487	4402.051282	4411.282051	3710.256410	4386.153846	4618.974359	4640.000000	4527.179487	4026.153846	4104.615385	4511.794872	4436.410256	4244.102564	3944.102564	1741.000000	1699.000000	20.132000	0.000000	0.000000	0.000000	0.000000
8.000000	4348.717949	4404.102564	4409.230769	3711.794872	4384.615385	4617.948718	4637.435897	4526.666667	4026.666667	4103.076923	4509.230769	4438.461538	4244.102564	3939.487179	1742.000000	1701.000000	20.132000	0.000000	0.000000	0.000000	0.000000
9.000000	4347.692308	4407.179487	4411.282051	3706.666667	4389.743590	4614.871795	4634.358974	4528.717949	4027.179487	4103.589744	4508.717949	4437.435897	4244.102564	3938.974359	1744.000000	1699.000000	20.147000	0.000000	0.000000	0.000000	0.000000
10.000000	4346.153846	4407.692308	4412.307692	3705.128205	4391.282051	4616.410256	4638.461538	4528.717949	4025.128205	4104.102564	4510.256410	4437.948718	4239.487179	3940.512821	1744.000000	1699.000000	20.147000	0.000000	0.000000	0.000000	0.000000
11.000000	4344.615385	4408.717949	4409.230769	3709.743590	4388.717949	4616.923077	4638.974359	4526.666667	4025.641026	4103.589744	4510.256410	4441.025641	4240.000000	3940.000000	1745.000000	1694.000000	20.163000	0.000000	0.000000	0.000000	0.000000
12.000000	4344.615385	4408.205128	4407.179487	3710.769231	4389.230769	4616.923077	4636.923077	4526.666667	4026.666667	4103.076923	4507.692308	4438.974359	4244.615385	3940.000000	1746.000000	1689.000000	20.163000	0.000000	0.000000	0.000000	0.000000
13.000000	4343.589744	4407.179487	4403.076923	3709.743590	4391.794872	4620.000000	4639.487179	4524.102564	4024.615385	4103.076923	4510.256410	4436.410256	4244.102564	3941.025641	1747.000000	1682.000000	20.179000	0.000000	0.000000	0.000000	0.000000
14.000000	4340.512821	4404.615385	4400.000000	3710.769231	4390.769231	4622.051282	4640.512821	4520.000000	4023.076923	4101.538462	4511.794872	4436.923077	4237.435897	3940.512821	1749.000000	1678.000000	20.179000	0.000000	0.000000	0.000000	0.000000
15.000000	4340.512821	4405.128205	4401.538462	3710.769231	4388.205128	4622.564103	4638.461538	4523.589744	4026.153846	4098.974359	4508.717949	4436.410256	4233.333333	3940.000000	1752.000000	1679.000000	20.194000	0.000000	0.000000	0.000000	0.000000
16.000000	4344.102564	4404.102564	4406.666667	3710.769231	4384.615385	4622.051282	4640.512821	4529.230769	4028.205128	4099.487179	4510.256410	4440.000000	4233.846154	3940.000000	1755.000000	1681.000000	20.194000	0.000000	0.000000	0.000000	0.000000
17.000000	4346.666667	4400.000000	4408.717949	3711.282051	4387.179487	4621.025641	4641.025641	4528.717949	4025.128205	4099.487179	4515.384615	4445.128205	4232.307692	3940.512821	1760.000000	1684.000000	20.210000	0.000000	0.000000	0.000000	0.000000
18.000000	4347.179487	4406.153846	4400.000000	3708.205128	4393.846154	4618.974359	4639.487179	4527.692308	4024.102564	4098.461538	4514.358974	4440.512821	4234.358974	3940.000000	1761.000000	1691.000000	20.210000	0.000000	0.000000	0.000000	0.000000
19.000000	4347.179487	4421.025641	4387.179487	3705.641026	4392.820513	4622.051282	4641.538462	4527.692308	4027.692308	4098.461538	4511.794872	4429.743590	4246.666667	3941.538462	1765.000000	1699.000000	20.225000	0.000000	0.000000	0.000000	0.000000
20.000000	4345.641026	4431.794872	4374.358974	3702.564103	4388.717949	4624.102564	4642.051282	4528.205128	4027.692308	4098.461538	4509.230769	4422.564103	4263.076923	3949.743590	1765.000000	1701.000000	20.225000	0.000000	0.000000	0.000000	0.000000
21.000000	4346.153846	4435.384615	4368.205128	3696.410256	4388.205128	4623.589744	4636.923077	4523.589744	4026.666667	4097.948718	4505.128205	4416.410256	4268.205128	3959.487179	1763.000000	1702.000000	20.241000	0.000000	0.000000	0.000000	0.000000
22.000000	4347.692308	4433.846154	4376.410256	3694.358974	4387.179487	4624.102564	4635.897436	4520.512821	4028.205128	4097.948718	4506.666667	4416.410256	4266.666667	3962.051282	1761.000000	1697.000000	20.241000	0.000000	0.000000	0.000000	0.000000
23.000000	4347.692308	4421.538462	4388.717949	3701.538462	4386.153846	4622.051282	4637.435897	4522.564103	4029.743590	4097.948718	4507.179487	4426.666667	4258.461538	3960.512821	1756.000000	1693.000000	20.257000	0.000000	0.000000	0.000000	0.000000
24.000000	4349.743590	4411.282051	4393.846154	3705.641026	4387.179487	4620.512821	4636.410256	4525.128205	4030.769231	4097.435897	4507.179487	4432.307692	4248.717949	3957.948718	1755.000000	1684.000000	20.257000	0.000000	0.000000	0.000000	0.000000
25.000000	4354.358974	4411.794872	4395.384615	3703.076923	4386.153846	4621.025641	4637.435897	4524.615385	4028.717949	4099.487179	4512.820513	4430.256410	4248.717949	3955.897436	1751.000000	1677.000000	20.272000	0.000000	0.000000	0.000000	0.000000
26.000000	4356.923077	4415.384615	4399.487179	3703.076923	4384.615385	4621.025641	4640.512821	4522.051282	4027.692308	4102.564103	4513.333333	4431.282051	4249.230769	3954.871795	1750.000000	1673.000000	20.272000	0.000000	0.000000	0.000000	0.000000
27.000000	4360.512821	4416.923077	4409.230769	3706.153846	4386.666667	4621.025641	4637.948718	4523.076923	4032.820513	4107.692308	4508.717949	4434.871795	4248.205128	3954.871795	1747.000000	1676.000000	20.288000	0.000000	0.000000	0.000000	0.000000
28.000000	4364.102564	4416.410256	4420.512821	3707.692308	4386.666667	4622.051282	4635.384615	4527.179487	4039.487179	4117.435897	4510.769231	4434.871795	4250.256410	3954.358974	1746.000000	1680.000000	20.288000	0.000000	0.000000	0.000000	0.000000
29.000000	4364.615385	4412.820513	4424.102564	3706.153846	4384.102564	4621.538462	4637.435897	4527.179487	4041.538462	4124.102564	4514.871795	4439.487179	4243.589744	3955.897436	1743.000000	1683.000000	20.304000	0.000000	0.000000	0.000000	0.000000
30.000000	4362.564103	4405.128205	4422.051282	3709.230769	4384.615385	4617.435897	4640.000000	4524.102564	4037.435897	4118.974359	4513.846154	4445.641026	4231.794872	3953.333333	1741.000000	1689.000000	20.304000	0.000000	0.000000	0.000000	0.000000
31.000000	4361.538462	4396.410256	4428.205128	3718.461538	4385.641026	4612.307692	4641.025641	4525.128205	4029.743590	4105.641026	4515.384615	4446.153846	4231.282051	3945.128205	1742.000000	1689.000000	20.319000	0.000000	0.000000	0.000000	0.000000
32.000000	4364.615385	4393.333333	4438.461538	3723.589744	4383.589744	4609.743590	4637.948718	4529.743590	4024.102564	4098.974359	4520.512821	4448.717949	4233.333333	3942.564103	1741.000000	1691.000000	20.319000	0.000000	0.000000	0.000000	0.000000
33.000000	4367.179487	4394.871795	4438.461538	3723.076923	4383.076923	4610.256410	4632.307692	4529.743590	4024.102564	4102.564103	4521.025641	4453.846154	4231.282051	3944.102564	1744.000000	1690.000000	20.335000	0.000000	0.000000	0.000000	0.000000
34.000000	4364.102564	4396.923077	4435.384615	3723.076923	4384.615385	4610.769231	4632.820513	4528.717949	4021.538462	4105.128205	4520.512821	4455.384615	4233.846154	3942.051282	1745.000000	1687.000000	20.335000	0.000000	0.000000	0.000000	0.000000
35.000000	4363.076923	4405.641026	4435.384615	3726.666667	4384.102564	4607.692308	4636.410256	4527.692308	4020.512821	4100.512821	4522.564103	4451.794872	4245.128205	3947.692308	1747.000000	1684.000000	20.350000	0.000000	0.000000	0.000000	0.000000
36.000000	4363.589744	4417.948718	4429.230769	3724.102564	4383.076923	4609.230769	4635.384615	4524.102564	4024.615385	4097.435897	4518.974359	4443.076923	4252.307692	3959.487179	1746.000000	1682.000000	20.350000	0.000000	0.000000	0.000000	0.000000
37.000000	4360.000000	4410.769231	4426.666667	3722.564103	4384.615385	4610.769231	4633.333333	4522.564103	4026.153846	4097.948718	4513.846154	4442.051282	4248.205128	3958.461538	1744.000000	1679.000000	20.366000	0.000000	0.000000	0.000000	0.000000
38.000000	4356.923077	4410.256410	4422.564103	3722.051282	4383.589744	4609.743590	4631.794872	4523.589744	4022.564103	4096.923077	4515.384615	4442.051282	4251.282051	3955.897436	1739.000000	1677.000000	20.366000	0.000000	0.000000	0.000000	0.000000
39.000000	4355.897436	4434.871795	4403.076923	3716.923077	4381.025641	4611.282051	4626.153846	4523.589744	4022.051282	4096.923077	4516.410256	4427.692308	4268.717949	3966.666667	1736.000000	1675.000000	20.382000	0.000000	0.000000	0.000000	0.000000
40.000000	4352.307692	4432.820513	4394.358974	3716.410256	4382.051282	4612.307692	4624.615385	4521.538462	4023.589744	4097.435897	4513.846154	4423.589744	4267.179487	3966.153846	1730.000000	1674.000000	20.382000	0.000000	0.000000	0.000000	0.000000
41.000000	4352.820513	4398.974359	4412.820513	3724.102564	4385.641026	4608.717949	4628.717949	4521.538462	4022.564103	4097.435897	4514.358974	4443.076923	4246.666667	3948.717949	1724.000000	1671.000000	20.397000	0.000000	0.000000	0.000000	0.000000
42.000000	4354.871795	4390.256410	4421.025641	3728.205128	4383.589744	4606.153846	4632.307692	4522.564103	4022.051282	4097.435897	4517.435897	4453.333333	4242.051282	3940.000000	1719.000000	1666.000000	20.397000	0.000000	0.000000	0.000000	0.000000
43.000000	4351.794872	4401.025641	4409.743590	3723.589744	4380.512821	4607.179487	4632.307692	4526.666667	4023.076923	4098.461538	4520.512821	4447.179487	4247.179487	3943.076923	1713.000000	1666.000000	20.413000	0.000000	0.000000	0.000000	0.000000
44.000000	4354.358974	4398.974359	4404.615385	3722.051282	4382.564103	4606.153846	4630.256410	4529.230769	4024.102564	4097.948718	4520.512821	4447.179487	4243.076923	3949.743590	1713.000000	1668.000000	20.413000	0.000000	0.000000	0.000000	0.000000
45.000000	4361.538462	4401.538462	4402.564103	3722.051282	4383.589744	4604.102564	4626.666667	4526.666667	4025.641026	4097.435897	4518.974359	4448.717949	4243.589744	3955.897436	1710.000000	1671.000000	20.429000	0.000000	0.000000	0.000000	0.000000
46.000000	4363.589744	4407.179487	4406.153846	3718.461538	4382.051282	4606.153846	4625.128205	4524.615385	4024.615385	4097.435897	4520.512821	4446.666667	4249.230769	3957.435897	1712.000000	1676.000000	20.429000	0.000000	0.000000	0.000000	0.000000
47.000000	4363.589744	4403.589744	4416.410256	3710.256410	4382.051282	4607.692308	4625.128205	4522.564103	4023.589744	4096.410256	4519.487179	4447.179487	4246.666667	3956.410256	1715.000000	1678.000000	20.444000	0.000000	0.000000	0.000000	0.000000
48.000000	4370.256410	4402.051282	4420.000000	3701.538462	4382.564103	4605.641026	4625.128205	4522.051282	4025.128205	4098.974359	4515.897436	4448.205128	4244.615385	3956.410256	1721.000000	1683.000000	20.444000	0.000000	0.000000	0.000000	0.000000
49.000000	4375.897436	4405.128205	4422.051282	3701.538462	4384.615385	4605.128205	4626.153846	4522.564103	4026.666667	4108.205128	4517.435897	4445.128205	4248.717949	3957.435897	1729.000000	1687.000000	20.460000	0.000000	0.000000	0.000000	0.000000
50.000000	4376.410256	4408.205128	4426.666667	3702.051282	4385.128205	4608.717949	4625.641026	4521.025641	4034.358974	4121.538462	4516.923077	4443.589744	4247.179487	3957.948718	1736.000000	1693.000000	20.460000	0.000000	0.000000	0.000000	0.000000
51.000000	4375.384615	4410.769231	4426.153846	3698.461538	4384.102564	4610.769231	4623.076923	4526.666667	4046.666667	4142.564103	4518.461538	4448.717949	4235.897436	3952.820513	1743.000000	1696.000000	20.475000	0.000000	0.000000	0.000000	0.000000
52.000000	4374.871795	4408.717949	4418.974359	3695.897436	4383.076923	4608.717949	4626.153846	4534.358974	4049.743590	4157.435897	4525.128205	4452.820513	4228.205128	3943.589744	1742.000000	1691.000000	20.475000	0.000000	0.000000	0.000000	0.000000
53.000000	4374.871795	4407.692308	4414.358974	3694.871795	4383.076923	4607.692308	4633.846154	4534.358974	4042.051282	4146.666667	4526.153846	4452.307692	4231.794872	3942.051282	1738.000000	1686.000000	20.491000	0.000000	0.000000	0.000000	0.000000
54.000000	4374.358974	4409.230769	4413.846154	3696.410256	4384.615385	4608.205128	4634.358974	4530.769231	4031.794872	4122.051282	4520.512821	4451.282051	4243.589744	3946.153846	1734.000000	1681.000000	20.491000	0.000000	0.000000	0.000000	0.000000
55.000000	4371.794872	4409.230769	4414.358974	3703.076923	4384.102564	4609.230769	4629.230769	4531.282051	4024.102564	4108.717949	4517.948718	4450.256410	4249.743590	3950.256410	1732.000000	1676.000000	20.507000	0.000000	0.000000	0.000000	0.000000
56.000000	4368.717949	4406.153846	4413.846154	3710.256410	4381.538462	4609.230769	4627.692308	4530.769231	4021.538462	4104.615385	4519.487179	4448.205128	4248.205128	3953.846154	1732.000000	1673.000000	20.507000	0.000000	0.000000	0.000000	0.000000
57.000000	4369.230769	4407.179487	4415.897436	3714.871795	4381.538462	4606.153846	4629.230769	4527.692308	4024.102564	4102.051282	4520.000000	4448.205128	4247.692308	3955.384615	1732.000000	1672.000000	20.522000	0.000000	0.000000	0.000000	0.000000
58.000000	4370.256410	4407.692308	4418.461538	3718.974359	4383.589744	4605.128205	4630.769231	4527.692308	4024.615385	4101.538462	4519.487179	4448.717949	4248.717949	3956.410256	1734.000000	1675.000000	20.522000	0.000000	0.000000	0.000000	0.000000
59.000000	4367.179487	4404.615385	4417.948718	3719.487179	4382.564103	4608.717949	4631.794872	4528.717949	4023.589744	4102.051282	4519.487179	4446.666667	4249.230769	3956.410256	1734.000000	1677.000000	20.538000	0.000000	0.000000	0.000000	0.000000
60.000000	4363.589744	4401.538462	4416.923077	3721.538462	4381.538462	4608.205128	4630.769231	4527.692308	4023.589744	4102.564103	4520.000000	4443.589744	4248.205128	3956.923077	1734.000000	1680.000000	20.538000	0.000000	0.000000	0.000000	0.000000
61.000000	4364.102564	4402.564103	4420.000000	3725.128205	4382.564103	4605.128205	4628.717949	4525.641026	4023.076923	4104.102564	4521.538462	4444.615385	4247.692308	3956.923077	1734.000000	1680.000000	20.554000	0.000000	0.000000	0.000000	0.000000
62.000000	4366.666667	4406.666667	4420.000000	3722.564103	4380.512821	4607.179487	4625.128205	4529.743590	4022.564103	4103.589744	4522.564103	4447.179487	4246.666667	3949.743590	1733.000000	1684.000000	20.554000	0.000000	0.000000	0.000000	0.000000
63.000000	4367.179487	4405.641026	4418.974359	3721.538462	4380.512821	4609.230769	4622.564103	4531.282051	4022.051282	4104.615385	4522.051282	4445.641026	4247.179487	3946.666667	1735.000000	1685.000000	20.569000	0.000000	0.000000	0.000000	0.000000
64.000000	4367.692308	4404.615385	4419.487179	3726.153846	4384.102564	4608.205128	4627.179487	4523.589744	4023.589744	4104.615385	4521.538462	4444.102564	4246.666667	3955.897436	1734.000000	1687.000000	20.569000	0.000000	0.000000	0.000000	0.000000
65.000000	4367.692308	4408.717949	4418.974359	3727.692308	4384.615385	4608.205128	4631.794872	4521.025641	4024.615385	4101.025641	4521.538462	4447.692308	4248.717949	3960.000000	1735.000000	1689.000000	20.585000	0.000000	0.000000	0.000000	0.000000
66.000000	4368.205128	4410.769231	4418.461538	3724.615385	4381.538462	4607.692308	4627.692308	4525.641026	4023.076923	4098.461538	4517.948718	4445.128205	4251.282051	3955.897436	1736.000000	1688.000000	20.585000	0.000000	0.000000	0.000000	0.000000
67.000000	4367.692308	4409.230769	4418.974359	3724.615385	4381.025641	4608.205128	4624.615385	4526.153846	4023.076923	4098.461538	4516.410256	4442.051282	4248.205128	3955.897436	1736.000000	1688.000000	20.600000	0.000000	0.000000	0.000000	0.000000
68.000000	4363.589744	4408.205128	4417.435897	3724.102564	4384.615385	4611.282051	4626.153846	4524.615385	4024.615385	4099.487179	4517.435897	4444.615385	4246.153846	3956.923077	1737.000000	1688.000000	20.600000	0.000000	0.000000	0.000000	0.000000
69.000000	4361.538462	4409.743590	4415.897436	3720.512821	4386.666667	4611.282051	4628.205128	4529.743590	4024.615385	4098.461538	4518.974359	4445.128205	4248.717949	3954.871795	1739.000000	1687.000000	20.616000	0.000000	0.000000	0.000000	0.000000
70.000000	4361.538462	4409.743590	4415.384615	3719.487179	4384.102564	4609.743590	4630.769231	4527.179487	4024.615385	4098.461538	4518.461538	4442.051282	4248.717949	3954.358974	1739.000000	1685.000000	20.616000	0.000000	0.000000	0.000000	0.000000
71.000000	4360.512821	4408.717949	4415.384615	3720.000000	4381.538462	4610.256410	4631.794872	4522.051282	4026.666667	4098.974359	4517.435897	4444.102564	4247.692308	3956.410256	1739.000000	1686.000000	20.632000	0.000000	0.000000	0.000000	0.000000
72.000000	4357.948718	4407.692308	4413.846154	3718.461538	4383.076923	4610.769231	4630.256410	4525.128205	4025.641026	4098.461538	4516.410256	4445.641026	4247.692308	3956.923077	1741.000000	1683.000000	20.632000	0.000000	0.000000	0.000000	0.000000
73.000000	4358.461538	4408.717949	4413.333333	3717.435897	4382.564103	4610.769231	4631.794872	4525.641026	4022.564103	4098.461538	4516.410256	4443.076923	4246.666667	3950.769231	1741.000000	1684.000000	20.647000	0.000000	0.000000	0.000000	0.000000
74.000000	4358.461538	4408.717949	4413.846154	3718.461538	4382.564103	4611.282051	4632.307692	4523.076923	4024.615385	4098.461538	4516.923077	4444.615385	4247.179487	3948.205128	1743.000000	1681.000000	20.647000	0.000000	0.000000	0.000000	0.000000
75.000000	4358.461538	4406.666667	4415.384615	3717.435897	4386.666667	4612.307692	4630.769231	4526.666667	4026.666667	4098.461538	4515.897436	4444.615385	4248.205128	3956.923077	1741.000000	1681.000000	20.663000	0.000000	0.000000	0.000000	0.000000
76.000000	4358.974359	4406.666667	4416.410256	3715.897436	4385.641026	4609.743590	4632.307692	4529.230769	4024.102564	4098.461538	4517.435897	4441.025641	4247.179487	3957.435897	1742.000000	1682.000000	20.663000	0.000000	0.000000	0.000000	0.000000
77.000000	4358.461538	4407.692308	4413.846154	3716.923077	4380.000000	4607.179487	4635.384615	4524.102564	4023.589744	4098.461538	4516.923077	4440.512821	4246.666667	3946.666667	1741.000000	1681.000000	20.679000	0.000000	0.000000	0.000000	0.000000
78.000000	4360.512821	4407.179487	4413.333333	3718.974359	4381.538462	4608.205128	4633.333333	4523.076923	4025.128205	4098.461538	4514.871795	4441.538462	4248.717949	3949.230769	1741.000000	1682.000000	20.679000	0.000000	0.000000	0.000000	0.000000
79.000000	4362.051282	4407.692308	4414.871795	3720.000000	4384.615385	4609.230769	4629.743590	4527.179487	4023.589744	4098.461538	4518.461538	4441.025641	4248.205128	3954.358974	1740.000000	1680.000000	20.694000	0.000000	0.000000	0.000000	0.000000
80.000000	4362.051282	4409.743590	4416.410256	3717.948718	4382.564103	4609.230769	4629.230769	4528.205128	4023.589744	4098.461538	4522.051282	4441.025641	4247.179487	3946.153846	1741.000000	1679.000000	20.694000	0.000000	0.000000	0.000000	0.000000
81.000000	4361.538462	4410.256410	4415.384615	3716.923077	4382.051282	4611.282051	4631.794872	4527.692308	4025.641026	4098.461538	4521.025641	4443.589744	4247.179487	3943.589744	1741.000000	1676.000000	20.710000	0.000000	0.000000	0.000000	0.000000
82.000000	4361.025641	4408.205128	4414.871795	3716.923077	4384.102564	4611.794872	4634.358974	4527.692308	4025.128205	4098.461538	4518.461538	4444.615385	4248.205128	3946.666667	1740.000000	1675.000000	20.710000	0.000000	0.000000	0.000000	0.000000
83.000000	4361.538462	4406.666667	4414.358974	3715.384615	4384.102564	4609.230769	4632.820513	4525.128205	4024.102564	4098.461538	4518.461538	4444.102564	4248.205128	3943.589744	1743.000000	1672.000000	20.725000	0.000000	0.000000	0.000000	0.000000
84.000000	4362.564103	4409.743590	4414.358974	3715.384615	4384.102564	4610.769231	4631.794872	4523.076923	4024.102564	4098.461538	4518.974359	4442.051282	4247.179487	3948.717949	1742.000000	1676.000000	20.725000	0.000000	0.000000	0.000000	0.000000
85.000000	4363.076923	4411.794872	4415.384615	3714.358974	4384.615385	4614.358974	4633.846154	4526.666667	4023.076923	4098.461538	4518.461538	4441.538462	4247.179487	3955.897436	1744.000000	1680.000000	20.741000	0.000000	0.000000	0.000000	0.000000
86.000000	4362.564103	4411.282051	4414.358974	3712.820513	4385.641026	4615.897436	4633.333333	4528.205128	4023.076923	4098.461538	4516.923077	4440.000000	4248.205128	3949.743590	1743.000000	1684.000000	20.741000	0.000000	0.000000	0.000000	0.000000
87.000000	4361.025641	4410.769231	4411.794872	3711.794872	4384.615385	4614.358974	4633.846154	4526.666667	4025.128205	4098.461538	4516.923077	4437.435897	4249.230769	3946.153846	1744.000000	1688.000000	20.757000	0.000000	0.000000	0.000000	0.000000
88.000000	4361.538462	4413.333333	4406.666667	3708.717949	4382.564103	4611.794872	4636.923077	4526.153846	4025.641026	4098.461538	4518.974359	4436.410256	4249.230769	3950.769231	1745.000000	1691.000000	20.757000	0.000000	0.000000	0.000000	0.000000
89.000000	4362.564103	4412.820513	4403.589744	3708.205128	4385.128205	4614.358974	4637.948718	4527.179487	4025.128205	4098.461538	4516.410256	4436.923077	4248.205128	3953.846154	1745.000000	1692.000000	20.772000	0.000000	0.000000	0.000000	0.000000
90.000000	4361.025641	4407.179487	4404.102564	3710.769231	4389.230769	4618.461538	4635.384615	4528.717949	4025.128205	4098.461538	4515.897436	4436.923077	4248.717949	3955.384615	1746.000000	1691.000000	20.772000	0.000000	0.000000	0.000000	0.000000
91.000000	4361.538462	4417.435897	4399.487179	3710.769231	4387.179487	4616.923077	4633.846154	4529.230769	4026.153846	4098.461538	4517.435897	4434.358974	4250.769231	3956.410256	1744.000000	1693.000000	20.788000	0.000000	0.000000	0.000000	0.000000
92.000000	4365.128205	4431.282051	4389.743590	3708.717949	4383.589744	4615.897436	4635.897436	4526.153846	4026.153846	4098.461538	4516.923077	4429.230769	4250.769231	3956.923077	1743.000000	1692.000000	20.788000	0.000000	0.000000	0.000000	0.000000
93.000000	4361.538462	4417.948718	4392.820513	3713.333333	4384.615385	4616.410256	4636.410256	4525.128205	4026.153846	4098.461538	4516.923077	4431.282051	4249.743590	3956.410256	1742.000000	1693.000000	20.804000	0.000000	0.000000	0.000000	0.000000
94.000000	4352.820513	4403.076923	4404.102564	3715.897436	4385.128205	4613.846154	4636.410256	4526.666667	4026.153846	4098.461538	4516.410256	4437.948718	4250.256410	3953.846154	1742.000000	1691.000000	20.804000	0.000000	0.000000	0.000000	0.000000
95.000000	4353.846154	4408.717949	4405.128205	3715.384615	4384.615385	4613.333333	4635.384615	4526.153846	4026.153846	4098.461538	4516.410256	4436.923077	4249.743590	3954.871795	1742.000000	1689.000000	20.819000	0.000000	0.000000	0.000000	0.000000
96.000000	4354.358974	4404.615385	4404.615385	3718.461538	4384.615385	4615.897436	4635.384615	4528.205128	4027.179487	4098.461538	4516.410256	4435.384615	4247.179487	3952.307692	1745.000000	1687.000000	20.819000	0.000000	0.000000	0.000000	0.000000
97.000000	4346.153846	4388.717949	4410.769231	3721.025641	4384.615385	4614.358974	4637.435897	4530.769231	4027.179487	4098.461538	4517.435897	4442.564103	4245.128205	3943.589744	1744.000000	1685.000000	20.835000	0.000000	0.000000	0.000000	0.000000
98.000000	4346.666667	4398.461538	4410.256410	3718.974359	4386.666667	4611.282051	4640.000000	4530.769231	4026.153846	4098.461538	4515.897436	4443.589744	4245.641026	3944.615385	1745.000000	1686.000000	20.835000	0.000000	0.000000	0.000000	0.000000
99.000000	4353.846154	4415.384615	4402.051282	3715.897436	4386.666667	4613.333333	4638.974359	4530.769231	4027.179487	4098.461538	4516.410256	4435.384615	4248.205128	3953.333333	1746.000000	1685.000000	20.850000	0.000000	0.000000	0.000000	0.000000
100.000000	4354.358974	4413.846154	4402.051282	3712.307692	4384.615385	4615.897436	4636.923077	4529.743590	4025.641026	4098.461538	4517.435897	4433.333333	4249.743590	3954.871795	1745.000000	1687.000000	20.850000	0.000000	0.000000	0.000000	0.000000
101.000000	4352.307692	4412.307692	4403.589744	3708.717949	4384.102564	4618.974359	4638.974359	4524.615385	4022.051282	4098.461538	4514.871795	4435.897436	4248.717949	3948.717949	1747.000000	1688.000000	20.866000	0.000000	0.000000	0.000000	0.000000
102.000000	4353.846154	4414.871795	4404.102564	3708.205128	4384.615385	4622.051282	4640.512821	4523.589744	4023.076923	4098.461538	4513.333333	4435.384615	4247.179487	3943.589744	1746.000000	1689.000000	20.866000	0.000000	0.000000	0.000000	0.000000
103.000000	4355.384615	4413.333333	4406.153846	3711.282051	4385.641026	4622.564103	4639.487179	4530.769231	4026.153846	4098.461538	4515.897436	4434.871795	4247.692308	3946.153846	1748.000000	1690.000000	20.882000	0.000000	0.000000	0.000000	0.000000
104.000000	4355.897436	4410.769231	4406.153846	3713.846154	4386.153846	4622.564103	4638.461538	4529.230769	4024.615385	4098.461538	4518.461538	4435.897436	4248.205128	3955.384615	1747.000000	1691.000000	20.882000	0.000000	0.000000	0.000000	0.000000
105.000000	4357.435897	4414.871795	4402.051282	3711.794872	4385.128205	4622.564103	4640.000000	4521.025641	4022.564103	4098.461538	4516.410256	4433.846154	4248.205128	3957.435897	1747.000000	1691.000000	20.897000	0.000000	0.000000	0.000000	0.000000
106.000000	4358.461538	4416.923077	4401.025641	3710.769231	4386.153846	4622.051282	4641.538462	4523.076923	4024.102564	4098.461538	4514.871795	4431.794872	4248.205128	3953.333333	1747.000000	1691.000000	20.897000	0.000000	0.000000	0.000000	0.000000
107.000000	4357.948718	4412.820513	4402.564103	3714.358974	4387.692308	4621.538462	4641.025641	4527.692308	4025.128205	4098.461538	4514.871795	4432.820513	4248.205128	3955.897436	1749.000000	1687.000000	20.913000	0.000000	0.000000	0.000000	0.000000
108.000000	4355.897436	4411.282051	4401.538462	3714.871795	4385.641026	4624.615385	4639.487179	4526.153846	4026.153846	4098.461538	4515.897436	4432.820513	4248.205128	3954.871795	1750.000000	1686.000000	20.913000	0.000000	0.000000	0.000000	0.000000
109.000000	4352.307692	4412.820513	4400.512821	3711.282051	4384.615385	4626.666667	4642.051282	4525.128205	4026.153846	4098.461538	4515.384615	4432.820513	4247.692308	3948.205128	1750.000000	1684.000000	20.929000	0.000000	0.000000	0.000000	0.000000
110.000000	4349.230769	4414.871795	4398.974359	3710.769231	4386.153846	4625.128205	4645.128205	4527.179487	4026.666667	4098.461538	4513.333333	4433.333333	4247.692308	3951.794872	1750.000000	1686.000000	20.929000	0.000000	0.000000	0.000000	0.000000
111.000000	4350.769231	4416.923077	4396.410256	3712.820513	4386.153846	4625.641026	4644.615385	4523.589744	4027.179487	4098.461538	4514.358974	4428.717949	4249.230769	3953.333333	1749.000000	1687.000000	20.944000	0.000000	0.000000	0.000000	0.000000
112.000000	4352.307692	4416.410256	4395.384615	3711.794872	4385.641026	4624.615385	4645.641026	4521.538462	4026.153846	4098.461538	4515.897436	4424.615385	4248.717949	3945.641026	1747.000000	1689.000000	20.944000	0.000000	0.000000	0.000000	0.000000
113.000000	4350.256410	4413.333333	4391.794872	3710.256410	4385.641026	4623.589744	4648.205128	4526.153846	4026.153846	4098.461538	4515.384615	4424.102564	4246.153846	3946.153846	1747.000000	1689.000000	20.960000	0.000000	0.000000	0.000000	0.000000
114.000000	4346.666667	4410.769231	4385.641026	3709.743590	4387.179487	4627.692308	4649.230769	4528.717949	4027.179487	4098.461538	4515.897436	4423.076923	4245.641026	3952.307692	1745.000000	1689.000000	20.960000	0.000000	0.000000	0.000000	0.000000
115.000000	4347.179487	4413.846154	4382.564103	3707.179487	4390.769231	4631.794872	4650.769231	4530.256410	4026.666667	4098.461538	4515.384615	4422.051282	4249.230769	3950.769231	1745.000000	1686.000000	20.976000	0.000000	0.000000	0.000000	0.000000
116.000000	4348.205128	4415.897436	4381.538462	3706.153846	4391.282051	4629.743590	4652.307692	4530.256410	4024.102564	4098.461538	4511.282051	4421.538462	4249.743590	3949.230769	1743.000000	1684.000000	20.976000	0.000000	0.000000	0.000000	0.000000
117.000000	4348.205128	4413.846154	4380.512821	3707.179487	4389.743590	4629.743590	4653.333333	4529.743590	4026.666667	4098.461538	4509.743590	4422.051282	4248.717949	3952.307692	1743.000000	1681.000000	20.991000	0.000000	0.000000	0.000000	0.000000
118.000000	4347.179487	4412.307692	4381.025641	3706.153846	4390.769231	4637.435897	4654.358974	4530.256410	4029.743590	4097.948718	4509.743590	4421.538462	4249.230769	3950.769231	1743.000000	1679.000000	20.991000	0.000000	0.000000	0.000000	0.000000
119.000000	4347.179487	4412.307692	4384.615385	3704.102564	4393.846154	4635.897436	4654.358974	4531.282051	4027.179487	4099.487179	4510.256410	4423.589744	4248.717949	3951.794872	1741.000000	1680.000000	21.007000	0.000000	0.000000	0.000000	0.000000
120.000000	4348.717949	4413.333333	4385.128205	3705.641026	4393.333333	4631.794872	4654.871795	4530.769231	4025.641026	4098.974359	4510.256410	4425.128205	4247.179487	3957.948718	1742.000000	1680.000000	21.007000	0.000000	0.000000	0.000000	0.000000
121.000000	4347.692308	4416.923077	4386.153846	3707.692308	4389.230769	4632.307692	4655.897436	4530.256410	4027.692308	4098.974359	4509.743590	4424.102564	4249.230769	3958.461538	1740.000000	1681.000000	21.022000	0.000000	0.000000	0.000000	0.000000
122.000000	4348.717949	4419.487179	4394.358974	3708.205128	4390.769231	4632.307692	4656.923077	4542.051282	4034.358974	4112.307692	4513.333333	4429.230769	4254.871795	3954.358974	1740.000000	1681.000000	21.022000	0.000000	0.000000	0.000000	0.000000
123.000000	4345.641026	4415.384615	4392.820513	3706.666667	4392.820513	4630.769231	4652.307692	4526.153846	4021.025641	4097.948718	4509.230769	4427.179487	4245.641026	3937.948718	1739.000000	1683.000000	21.038000	0.000000	0.000000	0.000000	0.000000
124.000000	4344.615385	4411.794872	4393.846154	3706.666667	4390.256410	4633.333333	4650.256410	4526.666667	4021.538462	4096.410256	4511.282051	4429.230769	4246.666667	3944.615385	1739.000000	1683.000000	21.038000	0.000000	0.000000	0.000000	0.000000
125.000000	4348.717949	4415.897436	4402.051282	3710.256410	4385.641026	4631.282051	4651.282051	4539.487179	4031.282051	4109.230769	4512.820513	4432.820513	4252.820513	3956.923077	1738.000000	1685.000000	21.054000	0.000000	0.000000	0.000000	0.000000
126.000000	4335.897436	4411.794872	4373.333333	3702.051282	4383.589744	4622.051282	4644.615385	4452.820513	3972.307692	4034.871795	4478.974359	4394.871795	4213.333333	3905.641026	1737.000000	1686.000000	21.054000	0.000000	0.000000	0.000000	0.000000
127.000000	4320.000000	4401.538462	4337.435897	3689.743590	4382.564103	4620.000000	4634.358974	4377.435897	3919.487179	3969.230769	4453.333333	4360.512821	4179.487179	3863.589744	1734.000000	1686.000000	21.069000	0.000000	0.000000	0.000000	0.000000
128.000000	4316.410256	4395.897436	4328.205128	3686.153846	4381.538462	4618.974359	4629.230769	4377.435897	3918.974359	3973.333333	4453.846154	4354.871795	4180.000000	3868.205128	1733.000000	1686.000000	21.069000	0.000000	0.000000	0.000000	0.000000
0.000000	4318.461538	4400.000000	4335.897436	3687.179487	4381.538462	4615.897436	4631.794872	4403.589744	3937.435897	4002.564103	4463.076923	4365.128205	4192.307692	3886.666667	1731.000000	1682.000000	21.085000	0.000000	0.000000	0.000000	0.000000
1.000000	4320.512821	4404.102564	4338.461538	3686.153846	4380.512821	4616.410256	4630.256410	4421.025641	3949.230769	4018.974359	4470.256410	4374.871795	4201.538462	3898.461538	1728.000000	1679.000000	21.085000	0.000000	0.000000	0.000000	0.000000
2.000000	4327.179487	4405.128205	4349.230769	3689.743590	4382.051282	4620.512821	4630.769231	4470.769231	3983.589744	4059.487179	4488.717949	4393.846154	4223.076923	3925.128205	1726.000000	1674.000000	21.101000	0.000000	0.000000	0.000000	0.000000
3.000000	4331.282051	4402.051282	4364.615385	3697.435897	4383.076923	4617.948718	4635.897436	4495.384615	4001.538462	4083.076923	4500.512821	4404.615385	4234.358974	3938.974359	1725.000000	1672.000000	21.101000	0.000000	0.000000	0.000000	0.000000
